* Measurement data measured by REW V5.19
* Source: ASIO MOTU M Series, In 1
* Format: 1M Log Swept Sine, 1 sweep at -3.0 dBFS  With no timing reference
* Dated: 13 Oct, 2020 4:54:06 PM
* REW Settings:
*  C-weighting compensation: Off
*  Target level: 75.0 dB
* Note: ; 
* Measurement: Oct 13 16:54:06
* Smoothing: None
* Frequency Step: 1/48 octave
* Start Frequency: 10.1 Hz
*
* Freq(Hz), SPL(dB), Phase(degrees)
10.145, 45.875, -31.422
10.293, 45.962, -32.716
10.443, 46.047, -33.995
10.595, 46.045, -34.951
10.749, 46.012, -35.626
10.905, 45.965, -35.841
11.064, 45.919, -35.660
11.225, 45.929, -35.065
11.388, 45.992, -34.146
11.554, 46.153, -33.275
11.722, 46.401, -32.480
11.892, 46.713, -32.247
12.065, 47.081, -32.553
12.241, 47.437, -33.567
12.419, 47.776, -35.225
12.599, 48.043, -37.394
12.782, 48.233, -39.942
12.968, 48.321, -42.654
13.157, 48.312, -45.280
13.348, 48.199, -47.646
13.543, 48.019, -49.398
13.740, 47.783, -50.422
13.939, 47.574, -50.488
14.142, 47.431, -49.757
14.348, 47.433, -48.372
14.557, 47.588, -47.022
14.768, 47.899, -45.986
14.983, 48.285, -45.807
15.201, 48.691, -46.382
15.422, 49.059, -47.693
15.646, 49.343, -49.302
15.874, 49.548, -50.934
16.105, 49.677, -52.287
16.339, 49.781, -53.066
16.577, 49.910, -53.326
16.818, 50.103, -53.166
17.063, 50.395, -52.991
17.311, 50.752, -53.183
17.563, 51.132, -53.892
17.818, 51.482, -55.156
18.077, 51.750, -56.723
18.340, 51.924, -58.226
18.607, 52.023, -59.369
18.877, 52.085, -59.934
19.152, 52.167, -59.885
19.431, 52.322, -59.526
19.713, 52.549, -59.278
20.000, 52.808, -59.427
20.291, 53.044, -60.029
20.586, 53.210, -60.882
20.885, 53.288, -61.608
21.189, 53.308, -61.827
21.497, 53.339, -61.378
21.810, 53.453, -60.481
22.127, 53.678, -59.644
22.449, 53.982, -59.354
22.776, 54.297, -59.809
23.107, 54.558, -60.861
23.443, 54.735, -62.154
23.784, 54.838, -63.316
24.130, 54.913, -64.136
24.481, 55.009, -64.657
24.837, 55.155, -65.127
25.198, 55.340, -65.820
25.565, 55.528, -66.850
25.937, 55.684, -68.108
26.314, 55.792, -69.338
26.697, 55.869, -70.274
27.085, 55.958, -70.793
27.479, 56.103, -71.011
27.879, 56.322, -71.242
28.284, 56.589, -71.795
28.696, 56.853, -72.763
29.113, 57.067, -73.961
29.537, 57.222, -75.038
29.966, 57.355, -75.761
30.402, 57.517, -76.235
30.844, 57.715, -76.847
31.293, 57.891, -77.843
31.748, 57.977, -78.956
32.210, 57.978, -79.554
32.678, 58.008, -79.331
33.154, 58.178, -78.911
33.636, 58.437, -79.388
34.125, 58.602, -80.933
34.621, 58.560, -82.430
35.125, 58.425, -82.494
35.636, 58.460, -81.192
36.154, 58.777, -80.319
36.680, 59.171, -81.031
37.214, 59.435, -82.620
37.755, 59.606, -83.884
38.304, 59.822, -84.792
38.861, 60.079, -86.187
39.427, 60.236, -87.988
40.000, 60.269, -89.126
40.582, 60.360, -89.141
41.172, 60.620, -89.209
41.771, 60.903, -90.392
42.379, 61.016, -92.138
42.995, 60.972, -93.135
43.620, 60.957, -93.068
44.255, 61.079, -92.959
44.898, 61.230, -93.812
45.552, 61.220, -95.236
46.214, 61.046, -95.562
46.886, 61.043, -94.037
47.568, 61.458, -93.261
48.260, 61.892, -95.546
48.962, 61.912, -98.628
49.674, 61.769, -99.242
50.397, 61.977, -98.760
51.130, 62.309, -100.330
51.874, 62.361, -102.530
52.628, 62.317, -103.342
53.394, 62.373, -104.011
54.170, 62.316, -105.129
54.958, 62.134, -105.130
55.758, 62.089, -104.073
56.569, 62.186, -103.544
57.391, 62.251, -103.550
58.226, 62.291, -103.213
59.073, 62.419, -102.534
59.932, 62.644, -102.106
60.804, 62.894, -102.098
61.688, 63.134, -102.208
62.586, 63.389, -102.522
63.496, 63.569, -103.225
64.420, 63.681, -103.279
65.357, 63.933, -103.258
66.307, 64.160, -104.471
67.272, 64.257, -105.461
68.250, 64.420, -106.273
69.243, 64.546, -107.310
70.250, 64.735, -107.780
71.272, 64.981, -109.061
72.309, 65.095, -110.051
73.360, 65.300, -110.625
74.427, 65.454, -111.599
75.510, 65.633, -112.207
76.608, 65.792, -113.500
77.723, 65.879, -114.445
78.853, 65.998, -115.386
80.000, 66.115, -116.294
81.164, 66.234, -117.259
82.344, 66.368, -118.053
83.542, 66.502, -119.118
84.757, 66.606, -119.880
85.990, 66.754, -120.755
87.241, 66.862, -121.703
88.510, 67.010, -122.693
89.797, 67.074, -124.034
91.103, 67.190, -124.718
92.428, 67.309, -126.104
93.773, 67.465, -127.228
95.137, 67.532, -128.893
96.520, 67.638, -129.777
97.924, 67.765, -131.026
99.349, 67.812, -132.502
100.794, 67.899, -133.110
102.260, 68.016, -134.472
103.747, 68.179, -135.685
105.256, 68.246, -137.697
106.787, 68.317, -139.033
108.340, 68.333, -140.574
109.916, 68.442, -142.352
111.515, 68.383, -144.198
113.137, 68.436, -145.894
114.783, 68.467, -147.393
116.452, 68.459, -149.316
118.146, 68.444, -150.736
119.865, 68.320, -151.983
121.608, 68.312, -153.481
123.377, 68.212, -155.028
125.171, 68.195, -156.277
126.992, 68.143, -157.645
128.839, 68.094, -159.445
130.713, 68.036, -160.977
132.615, 67.894, -162.597
134.543, 67.820, -164.240
136.500, 67.624, -166.166
138.486, 67.412, -167.766
140.500, 67.112, -169.445
142.544, 66.762, -171.003
144.617, 66.304, -171.832
146.721, 65.926, -172.723
148.855, 65.499, -172.172
151.020, 65.034, -171.083
153.217, 64.711, -169.974
155.445, 64.347, -167.019
157.706, 64.161, -164.362
160.000, 63.990, -162.081
162.327, 63.981, -159.203
164.688, 64.121, -156.730
167.084, 64.322, -155.451
169.514, 64.504, -153.458
171.980, 64.740, -152.080
174.481, 65.022, -150.951
177.019, 65.274, -150.877
179.594, 65.579, -150.603
182.206, 65.784, -150.855
184.856, 66.004, -151.318
187.545, 66.234, -151.719
190.273, 66.417, -152.300
193.041, 66.609, -153.186
195.849, 66.755, -154.139
198.697, 66.917, -155.389
201.587, 66.993, -156.402
204.520, 67.061, -157.962
207.494, 67.092, -159.569
210.512, 67.117, -160.366
213.574, 67.119, -161.410
216.681, 67.098, -162.315
219.833, 67.086, -163.129
223.030, 67.023, -163.921
226.274, 67.052, -164.664
229.565, 67.020, -165.578
232.905, 67.022, -166.480
236.292, 66.956, -167.518
239.729, 66.818, -168.323
243.216, 66.701, -168.812
246.754, 66.616, -169.143
250.343, 66.596, -169.539
253.984, 66.528, -170.360
257.678, 66.379, -171.082
261.426, 66.209, -171.086
265.229, 66.086, -170.502
269.087, 66.051, -170.206
273.001, 66.077, -170.045
276.972, 66.068, -170.643
281.000, 66.018, -171.128
285.088, 65.868, -171.314
289.234, 65.708, -170.740
293.441, 65.786, -170.572
297.710, 65.726, -170.451
302.040, 65.675, -170.826
306.433, 65.644, -170.422
310.890, 65.637, -170.415
315.412, 65.604, -170.394
320.000, 65.584, -170.715
324.655, 65.542, -170.715
329.377, 65.468, -170.844
334.168, 65.414, -170.846
339.028, 65.332, -170.773
343.959, 65.269, -170.619
348.962, 65.174, -170.556
354.038, 65.070, -170.367
359.188, 64.924, -169.730
364.412, 64.891, -168.612
369.713, 64.948, -167.877
375.090, 64.904, -167.375
380.546, 64.907, -166.745
386.081, 64.913, -166.007
391.697, 64.945, -165.384
397.395, 65.002, -164.962
403.175, 65.050, -164.627
409.039, 65.084, -164.253
414.989, 65.133, -163.824
421.025, 65.173, -163.473
427.149, 65.231, -163.002
433.362, 65.307, -162.679
439.665, 65.400, -162.618
446.060, 65.446, -162.319
452.548, 65.519, -162.303
459.131, 65.581, -162.314
465.809, 65.634, -162.270
472.584, 65.677, -162.280
479.458, 65.721, -162.292
486.432, 65.766, -162.275
493.507, 65.806, -162.214
500.686, 65.842, -162.193
507.968, 65.890, -162.189
515.357, 65.931, -162.183
522.853, 65.972, -162.163
530.458, 66.005, -162.263
538.174, 66.039, -162.310
546.002, 66.071, -162.297
553.943, 66.105, -162.302
562.001, 66.129, -162.288
570.175, 66.175, -162.280
578.469, 66.212, -162.400
586.883, 66.238, -162.449
595.419, 66.261, -162.506
604.080, 66.283, -162.499
612.866, 66.305, -162.525
621.780, 66.333, -162.507
630.824, 66.361, -162.422
640.000, 66.387, -162.430
649.309, 66.417, -162.398
658.753, 66.447, -162.374
668.335, 66.479, -162.361
678.056, 66.506, -162.350
687.919, 66.541, -162.327
697.925, 66.573, -162.340
708.076, 66.602, -162.370
718.376, 66.632, -162.364
728.825, 66.659, -162.376
739.426, 66.687, -162.372
750.181, 66.712, -162.344
761.093, 66.741, -162.285
772.163, 66.775, -162.244
783.394, 66.813, -162.210
794.789, 66.840, -162.187
806.349, 66.876, -162.146
818.078, 66.913, -162.105
829.977, 66.955, -162.080
842.050, 66.996, -162.019
854.297, 67.043, -162.004
866.724, 67.090, -161.994
879.330, 67.138, -162.004
892.120, 67.188, -162.026
905.097, 67.243, -162.074
918.262, 67.296, -162.158
931.618, 67.343, -162.280
945.169, 67.391, -162.387
958.917, 67.439, -162.525
972.864, 67.486, -162.662
987.015, 67.530, -162.830
1001.371, 67.568, -163.009
1015.937, 67.611, -163.145
1030.714, 67.651, -163.339
1045.706, 67.685, -163.531
1060.916, 67.713, -163.702
1076.347, 67.744, -163.848
1092.003, 67.776, -163.974
1107.887, 67.814, -164.099
1124.001, 67.851, -164.252
1140.350, 67.887, -164.401
1156.937, 67.925, -164.571
1173.765, 67.959, -164.698
1190.838, 68.004, -164.854
1208.159, 68.050, -165.016
1225.732, 68.098, -165.222
1243.561, 68.152, -165.465
1261.649, 68.201, -165.770
1280.000, 68.250, -166.090
1298.618, 68.291, -166.439
1317.507, 68.334, -166.820
1336.670, 68.374, -167.238
1356.113, 68.410, -167.659
1375.838, 68.442, -168.121
1395.850, 68.473, -168.603
1416.153, 68.501, -169.122
1436.751, 68.523, -169.666
1457.649, 68.538, -170.258
1478.851, 68.547, -170.883
1500.362, 68.551, -171.519
1522.185, 68.546, -172.199
1544.326, 68.532, -172.913
1566.789, 68.509, -173.633
1589.578, 68.471, -174.411
1612.699, 68.420, -175.179
1636.156, 68.352, -175.964
1659.955, 68.262, -176.736
1684.099, 68.152, -177.452
1708.595, 68.017, -178.072
1733.447, 67.871, -178.535
1758.661, 67.714, -178.857
1784.241, 67.559, -179.024
1810.193, 67.413, -179.075
1836.523, 67.268, -179.122
1863.236, 67.117, -179.138
1890.338, 66.951, -179.040
1917.833, 66.775, -178.835
1945.729, 66.600, -178.453
1974.030, 66.432, -177.942
2002.743, 66.262, -177.322
2031.873, 66.087, -176.581
2061.428, 65.909, -175.581
2091.412, 65.753, -174.326
2121.832, 65.633, -172.846
2152.695, 65.550, -171.331
2184.007, 65.486, -169.759
2215.774, 65.459, -168.045
2248.003, 65.467, -166.373
2280.701, 65.509, -164.702
2313.874, 65.585, -163.066
2347.530, 65.701, -161.557
2381.676, 65.831, -160.200
2416.318, 65.999, -158.965
2451.464, 66.182, -157.982
2487.122, 66.363, -157.271
2523.298, 66.532, -156.668
2560.000, 66.707, -156.122
2597.236, 66.897, -155.668
2635.014, 67.094, -155.519
2673.341, 67.264, -155.581
2712.226, 67.418, -155.643
2751.676, 67.581, -155.859
2791.700, 67.724, -156.390
2832.306, 67.807, -157.068
2873.503, 67.842, -157.761
2915.299, 67.817, -158.334
2957.703, 67.738, -158.556
3000.724, 67.630, -158.277
3044.370, 67.537, -157.306
3088.652, 67.534, -155.739
3133.577, 67.662, -154.089
3179.156, 67.901, -152.900
3225.398, 68.188, -152.322
3272.312, 68.468, -152.402
3319.909, 68.715, -152.988
3368.198, 68.902, -153.926
3417.190, 69.027, -154.948
3466.894, 69.091, -155.994
3517.321, 69.110, -156.955
3568.482, 69.074, -157.724
3620.387, 69.008, -158.169
3673.046, 68.930, -158.288
3726.472, 68.854, -158.054
3780.675, 68.796, -157.518
3835.666, 68.770, -156.632
3891.457, 68.792, -155.560
3948.060, 68.872, -154.346
4005.486, 69.016, -153.166
4063.747, 69.220, -152.099
4122.855, 69.477, -151.258
4182.824, 69.771, -150.744
4243.664, 70.100, -150.578
4305.390, 70.440, -150.787
4368.013, 70.784, -151.369
4431.547, 71.125, -152.313
4496.005, 71.456, -153.629
4561.401, 71.762, -155.337
4627.749, 72.022, -157.373
4695.061, 72.231, -159.602
4763.352, 72.394, -161.841
4832.637, 72.548, -164.027
4902.929, 72.730, -166.538
4974.244, 72.874, -169.865
5046.596, 72.842, -173.797
5120.000, 72.599, -177.205
5194.472, 72.291, -179.180
5270.027, 72.123, 179.491
5346.682, 72.000, 177.659
5424.451, 71.822, 175.633
5503.352, 71.595, 173.766
5583.399, 71.344, 172.134
5664.612, 71.084, 170.678
5747.006, 70.817, 169.363
5830.598, 70.548, 168.176
5915.406, 70.300, 167.014
6001.447, 70.045, 165.571
6088.740, 69.743, 163.792
6177.303, 69.353, 161.825
6267.154, 68.841, 159.774
6358.312, 68.168, 157.982
6450.796, 67.321, 156.849
6544.625, 66.264, 156.913
6639.818, 65.018, 159.164
6736.397, 63.717, 165.045
6834.380, 62.730, 175.211
6933.789, 62.509, -171.659
7034.643, 63.207, -159.632
7136.964, 64.425, -151.287
7240.773, 65.830, -146.609
7346.093, 67.243, -144.985
7452.944, 68.571, -145.855
7561.350, 69.760, -148.826
7671.332, 70.738, -153.418
7782.915, 71.518, -159.195
7896.120, 72.048, -166.080
8010.971, 72.266, -173.478
8127.493, 72.180, 179.449
8245.711, 71.860, 173.284
8365.647, 71.394, 168.247
8487.328, 70.821, 164.465
8610.779, 70.384, 162.718
8736.026, 70.073, 158.313
8863.095, 69.443, 154.718
8992.011, 68.643, 151.718
9122.803, 67.599, 150.422
9255.497, 66.583, 153.421
9390.121, 66.640, 156.567
9526.704, 66.185, 153.052
9665.273, 64.934, 154.489
9805.857, 64.261, 161.623
9948.487, 64.315, 168.735
10093.191, 65.034, 174.087
10240.000, 65.779, 175.120
10388.944, 66.605, 176.023
10540.055, 67.900, 173.978
10693.363, 69.045, 165.904
10848.902, 69.652, 154.449
11006.703, 69.615, 141.752
11166.799, 69.162, 129.168
11329.224, 68.241, 116.277
11494.012, 66.934, 103.662
11661.195, 65.208, 91.494
11830.812, 63.128, 79.818
12002.895, 60.799, 67.334
12177.480, 58.228, 50.429
12354.606, 55.108, 24.811
12534.309, 52.686, -15.927
12716.624, 51.944, -63.746
12901.592, 52.800, -87.371
13089.250, 54.698, -98.624
13279.637, 56.414, -106.760
13472.794, 58.184, -112.772
13668.760, 59.707, -121.278
13867.577, 60.733, -131.383
14069.285, 61.087, -140.266
14273.928, 61.253, -147.564
14481.547, 61.277, -153.654
14692.186, 61.181, -159.368
14905.889, 61.096, -164.930
15122.700, 60.684, -170.945
15342.664, 60.025, -174.447
15565.829, 59.671, -175.862
15792.239, 59.676, -178.744
16021.942, 59.657, 175.521
16254.986, 59.358, 168.227
16491.422, 58.757, 158.392
16731.295, 57.298, 149.272
16974.656, 55.424, 144.207
17221.559, 53.705, 142.057
17472.053, 51.692, 140.321
17726.189, 49.576, 142.574
17984.021, 47.441, 146.245
18245.605, 44.618, 158.292
18510.994, 44.131, -173.595
18780.242, 47.357, -159.525
19053.408, 50.014, -171.197
19330.547, 50.280, 171.127
19611.715, 49.271, 155.280
19896.975, 47.344, 138.859
