* Measurement data measured by REW V5.19
* Source: ASIO MOTU M Series, In 1
* Format: 1M Log Swept Sine, 1 sweep at -10.0 dBFS  With no timing reference
* Dated: 30 Apr, 2021 9:00:42 PM
* REW Settings:
*  C-weighting compensation: Off
*  Target level: 75.0 dB
* Note: ; 
* Measurement: Apr 30 21:00:42
* Smoothing: 1/48 octave
* Frequency Step: 1/48 octave
* Start Frequency: 10.1 Hz
*
* Freq(Hz), SPL(dB), Phase(degrees)
10.145, 59.542, 100.416
10.293, 59.633, 99.691
10.443, 59.728, 98.701
10.595, 59.866, 97.387
10.749, 60.003, 96.002
10.905, 60.096, 94.919
11.064, 60.168, 93.945
11.225, 60.247, 92.879
11.388, 60.326, 91.790
11.554, 60.397, 90.781
11.722, 60.462, 89.837
11.892, 60.527, 88.947
12.065, 60.592, 88.107
12.241, 60.663, 87.281
12.419, 60.737, 86.476
12.599, 60.814, 85.706
12.782, 60.894, 84.949
12.968, 60.979, 84.170
13.157, 61.068, 83.382
13.348, 61.158, 82.586
13.543, 61.248, 81.770
13.740, 61.339, 80.931
13.939, 61.429, 80.073
14.142, 61.516, 79.200
14.348, 61.600, 78.317
14.557, 61.680, 77.428
14.768, 61.756, 76.538
14.983, 61.827, 75.660
15.201, 61.895, 74.799
15.422, 61.959, 73.958
15.646, 62.022, 73.148
15.874, 62.083, 72.366
16.105, 62.144, 71.614
16.339, 62.206, 70.886
16.577, 62.271, 70.178
16.818, 62.337, 69.482
17.063, 62.406, 68.787
17.311, 62.477, 68.087
17.563, 62.549, 67.374
17.818, 62.620, 66.644
18.077, 62.688, 65.899
18.340, 62.752, 65.146
18.607, 62.812, 64.395
18.877, 62.868, 63.657
19.152, 62.921, 62.942
19.431, 62.973, 62.252
19.713, 63.026, 61.581
20.000, 63.081, 60.915
20.291, 63.136, 60.241
20.586, 63.191, 59.551
20.885, 63.243, 58.848
21.189, 63.291, 58.148
21.497, 63.334, 57.470
21.810, 63.378, 56.824
22.127, 63.424, 56.202
22.449, 63.474, 55.583
22.776, 63.527, 54.941
23.107, 63.580, 54.266
23.443, 63.627, 53.570
23.784, 63.667, 52.887
24.130, 63.703, 52.247
24.481, 63.740, 51.659
24.837, 63.783, 51.101
25.198, 63.832, 50.538
25.565, 63.882, 49.946
25.937, 63.930, 49.334
26.314, 63.972, 48.732
26.697, 64.012, 48.165
27.085, 64.055, 47.626
27.479, 64.102, 47.080
27.879, 64.150, 46.496
28.284, 64.192, 45.878
28.696, 64.225, 45.263
29.113, 64.251, 44.694
29.537, 64.276, 44.180
29.966, 64.305, 43.694
30.402, 64.339, 43.201
30.844, 64.372, 42.688
31.293, 64.403, 42.168
31.748, 64.431, 41.658
32.210, 64.460, 41.164
32.678, 64.492, 40.671
33.154, 64.525, 40.166
33.636, 64.556, 39.645
34.125, 64.585, 39.125
34.621, 64.611, 38.627
35.125, 64.640, 38.156
35.636, 64.671, 37.686
36.154, 64.702, 37.197
36.680, 64.728, 36.715
37.214, 64.751, 36.284
37.755, 64.781, 35.889
38.304, 64.818, 35.454
38.861, 64.850, 34.946
39.427, 64.868, 34.441
40.000, 64.879, 34.018
40.582, 64.901, 33.639
41.172, 64.929, 33.204
41.771, 64.951, 32.705
42.379, 64.963, 32.221
42.995, 64.977, 31.778
43.620, 64.995, 31.325
44.255, 65.010, 30.847
44.898, 65.021, 30.397
45.552, 65.036, 29.992
46.214, 65.058, 29.573
46.886, 65.076, 29.120
47.568, 65.085, 28.710
48.260, 65.098, 28.388
48.962, 65.122, 28.081
49.674, 65.149, 27.725
50.397, 65.172, 27.341
51.130, 65.190, 26.958
51.874, 65.204, 26.580
52.628, 65.216, 26.215
53.394, 65.228, 25.857
54.170, 65.240, 25.496
54.958, 65.252, 25.137
55.758, 65.265, 24.786
56.569, 65.280, 24.451
57.391, 65.302, 24.115
58.226, 65.327, 23.743
59.073, 65.347, 23.355
59.932, 65.365, 22.993
60.804, 65.382, 22.627
61.688, 65.392, 22.257
62.586, 65.397, 21.925
63.496, 65.404, 21.598
64.420, 65.410, 21.248
65.357, 65.414, 20.879
66.307, 65.419, 20.498
67.272, 65.426, 20.107
68.250, 65.439, 19.729
69.243, 65.457, 19.303
70.250, 65.472, 18.939
71.272, 65.518, 18.472
72.309, 65.501, 17.634
73.360, 65.414, 17.420
74.427, 65.414, 17.424
75.510, 65.401, 17.055
76.608, 65.375, 16.826
77.723, 65.358, 16.499
78.853, 65.329, 16.197
80.000, 65.302, 15.925
81.164, 65.266, 15.725
82.344, 65.233, 15.634
83.542, 65.198, 15.569
84.757, 65.167, 15.569
85.990, 65.132, 15.530
87.241, 65.100, 15.646
88.510, 65.097, 15.750
89.797, 65.103, 15.906
91.103, 65.136, 16.019
92.428, 65.155, 16.066
93.773, 65.170, 16.236
95.137, 65.208, 16.408
96.520, 65.246, 16.422
97.924, 65.291, 16.426
99.349, 65.354, 16.384
100.794, 65.428, 16.099
102.260, 65.457, 15.937
103.747, 65.530, 15.895
105.256, 65.594, 15.454
106.787, 65.612, 15.011
108.340, 65.636, 14.511
109.916, 65.646, 14.048
111.515, 65.672, 13.599
113.137, 65.688, 13.145
114.783, 65.690, 12.674
116.452, 65.654, 12.135
118.146, 65.579, 11.648
119.865, 65.482, 11.502
121.608, 65.444, 11.660
123.377, 65.455, 11.911
125.171, 65.487, 12.164
126.992, 65.529, 12.298
128.839, 65.558, 12.300
130.713, 65.589, 12.174
132.615, 65.622, 11.949
134.543, 65.662, 11.717
136.500, 65.694, 11.405
138.486, 65.709, 11.160
140.500, 65.712, 11.010
142.544, 65.721, 10.720
144.617, 65.715, 10.447
146.721, 65.736, 10.180
148.855, 65.755, 9.956
151.020, 65.767, 9.771
153.217, 65.752, 9.429
155.445, 65.752, 9.019
157.706, 65.790, 8.746
160.000, 65.855, 8.584
162.327, 65.790, 8.484
164.688, 65.719, 8.490
167.084, 65.677, 8.038
169.514, 65.671, 7.600
171.980, 65.692, 7.519
174.481, 65.693, 7.548
177.019, 65.698, 7.484
179.594, 65.699, 7.350
182.206, 65.711, 7.180
184.856, 65.693, 6.829
187.545, 65.658, 6.721
190.273, 65.652, 6.831
193.041, 65.660, 6.696
195.849, 65.639, 6.437
198.697, 65.602, 6.340
201.587, 65.596, 6.456
204.520, 65.610, 6.342
207.494, 65.611, 6.265
210.512, 65.604, 6.116
213.574, 65.608, 6.011
216.681, 65.620, 5.891
219.833, 65.629, 5.798
223.030, 65.612, 5.684
226.274, 65.599, 5.536
229.565, 65.635, 5.180
232.905, 65.632, 5.235
236.292, 65.626, 5.137
239.729, 65.625, 4.954
243.216, 65.653, 4.592
246.754, 65.558, 4.575
250.343, 65.542, 4.750
253.984, 65.539, 4.765
257.678, 65.542, 4.613
261.426, 65.518, 4.340
265.229, 65.502, 4.206
269.087, 65.474, 4.262
273.001, 65.471, 4.169
276.972, 65.474, 4.044
281.000, 65.454, 3.956
285.088, 65.435, 3.886
289.234, 65.421, 3.841
293.441, 65.417, 3.713
297.710, 65.418, 3.755
302.040, 65.422, 3.737
306.433, 65.416, 3.592
310.890, 65.361, 3.375
315.412, 65.341, 3.258
320.000, 65.319, 3.233
324.655, 65.297, 3.184
329.377, 65.268, 3.263
334.168, 65.270, 3.228
339.028, 65.252, 3.310
343.959, 65.240, 3.297
348.962, 65.233, 3.272
354.038, 65.233, 3.213
359.188, 65.199, 3.207
364.412, 65.171, 3.146
369.713, 65.173, 3.111
375.090, 65.151, 3.096
380.546, 65.135, 3.060
386.081, 65.104, 3.029
391.697, 65.080, 2.958
397.395, 65.045, 3.046
403.175, 65.027, 3.175
409.039, 65.015, 3.232
414.989, 64.990, 3.204
421.025, 64.966, 3.212
427.149, 64.932, 3.311
433.362, 64.906, 3.443
439.665, 64.881, 3.496
446.060, 64.853, 3.659
452.548, 64.838, 3.763
459.131, 64.822, 3.986
465.809, 64.805, 4.015
472.584, 64.793, 4.083
479.458, 64.762, 4.206
486.432, 64.732, 4.366
493.507, 64.711, 4.532
500.686, 64.691, 4.783
507.968, 64.690, 4.847
515.357, 64.659, 4.984
522.853, 64.635, 5.133
530.458, 64.615, 5.361
538.174, 64.600, 5.551
546.002, 64.586, 5.771
553.943, 64.574, 5.952
562.001, 64.548, 6.087
570.175, 64.505, 6.379
578.469, 64.502, 6.808
586.883, 64.517, 6.991
595.419, 64.502, 7.277
604.080, 64.510, 7.613
612.866, 64.512, 7.705
621.780, 64.490, 7.892
630.824, 64.483, 8.296
640.000, 64.506, 8.514
649.309, 64.506, 8.675
658.753, 64.487, 8.870
668.335, 64.483, 9.141
678.056, 64.468, 9.371
687.919, 64.439, 9.697
697.925, 64.442, 10.005
708.076, 64.440, 10.299
718.376, 64.441, 10.669
728.825, 64.456, 11.170
739.426, 64.472, 11.564
750.181, 64.494, 11.786
761.093, 64.503, 12.066
772.163, 64.526, 12.326
783.394, 64.518, 12.596
794.789, 64.509, 13.022
806.349, 64.528, 13.331
818.078, 64.533, 13.621
829.977, 64.538, 14.013
842.050, 64.538, 14.435
854.297, 64.560, 14.878
866.724, 64.581, 15.389
879.330, 64.596, 15.847
892.120, 64.638, 16.380
905.097, 64.691, 16.736
918.262, 64.724, 17.136
931.618, 64.778, 17.572
945.169, 64.831, 17.976
958.917, 64.920, 18.364
972.864, 64.978, 18.586
987.015, 65.019, 18.691
1001.371, 65.040, 18.848
1015.937, 65.080, 19.169
1030.714, 65.113, 19.573
1045.706, 65.196, 20.013
1060.916, 65.263, 20.052
1076.347, 65.268, 20.310
1092.003, 65.317, 20.589
1107.887, 65.379, 20.757
1124.001, 65.428, 21.200
1140.350, 65.501, 21.335
1156.937, 65.557, 21.553
1173.765, 65.589, 21.735
1190.838, 65.650, 22.276
1208.159, 65.749, 22.522
1225.732, 65.805, 22.567
1243.561, 65.855, 22.846
1261.649, 65.928, 22.991
1280.000, 65.982, 23.274
1298.618, 66.064, 23.484
1317.507, 66.135, 23.713
1336.670, 66.208, 23.903
1356.113, 66.279, 24.132
1375.838, 66.379, 24.313
1395.850, 66.470, 24.419
1416.153, 66.574, 24.492
1436.751, 66.645, 24.285
1457.649, 66.685, 24.367
1478.851, 66.772, 24.662
1500.362, 66.869, 24.582
1522.185, 66.932, 24.615
1544.326, 67.030, 24.678
1566.789, 67.116, 24.605
1589.578, 67.189, 24.408
1612.699, 67.236, 24.444
1636.156, 67.309, 24.660
1659.955, 67.422, 24.724
1684.099, 67.544, 24.667
1708.595, 67.640, 24.301
1733.447, 67.718, 24.021
1758.661, 67.777, 23.675
1784.241, 67.827, 23.580
1810.193, 67.917, 23.444
1836.523, 67.995, 23.060
1863.236, 68.047, 22.471
1890.338, 67.995, 22.097
1917.833, 67.989, 22.412
1945.729, 68.003, 22.722
1974.030, 68.098, 23.206
2002.743, 68.181, 23.061
2031.873, 68.208, 23.344
2061.428, 68.316, 23.693
2091.412, 68.375, 23.985
2121.832, 68.554, 24.684
2152.695, 68.735, 24.546
2184.007, 68.912, 24.579
2215.774, 69.111, 24.280
2248.003, 69.300, 23.720
2280.701, 69.476, 22.979
2313.874, 69.615, 21.799
2347.530, 69.672, 20.879
2381.676, 69.745, 20.351
2416.318, 69.847, 19.527
2451.464, 69.880, 18.668
2487.122, 69.915, 18.191
2523.298, 69.988, 17.878
2560.000, 70.127, 17.230
2597.236, 70.186, 16.226
2635.014, 70.239, 15.341
2673.341, 70.250, 14.729
2712.226, 70.325, 14.066
2751.676, 70.356, 13.367
2791.700, 70.392, 12.602
2832.306, 70.437, 12.124
2873.503, 70.502, 11.369
2915.299, 70.558, 10.429
2957.703, 70.573, 9.548
3000.724, 70.586, 8.725
3044.370, 70.594, 7.970
3088.652, 70.582, 7.354
3133.577, 70.608, 6.916
3179.156, 70.665, 6.353
3225.398, 70.723, 5.566
3272.312, 70.760, 4.807
3319.909, 70.817, 4.180
3368.198, 70.918, 3.417
3417.190, 71.053, 2.339
3466.894, 71.187, 0.722
3517.321, 71.262, -1.226
3568.482, 71.306, -3.322
3620.387, 71.309, -5.590
3673.046, 71.268, -7.904
3726.472, 71.218, -10.322
3780.675, 71.115, -13.191
3835.666, 70.911, -16.049
3891.457, 70.652, -18.698
3948.060, 70.347, -21.347
4005.486, 69.987, -23.835
4063.747, 69.597, -26.357
4122.855, 69.131, -29.052
4182.824, 68.571, -31.917
4243.664, 67.822, -35.121
4305.390, 66.757, -37.597
4368.013, 65.413, -38.348
4431.547, 63.746, -35.539
4496.005, 62.257, -27.433
4561.401, 61.350, -16.339
4627.749, 61.208, -4.237
4695.061, 61.746, 6.289
4763.352, 62.730, 13.576
4832.637, 63.688, 17.107
4902.929, 64.502, 19.049
4974.244, 65.252, 19.852
5046.596, 65.887, 19.758
5120.000, 66.466, 19.175
5194.472, 66.998, 17.842
5270.027, 67.417, 15.700
5346.682, 67.691, 13.158
5424.451, 67.839, 10.624
5503.352, 67.898, 8.138
5583.399, 67.864, 5.458
5664.612, 67.648, 2.928
5747.006, 67.307, 1.222
5830.598, 66.879, 0.529
5915.406, 66.459, 0.848
6001.447, 66.059, 1.908
6088.740, 65.656, 3.556
6177.303, 65.251, 6.631
6267.154, 65.021, 11.060
6358.312, 65.024, 16.247
6450.796, 65.323, 21.871
6544.625, 65.995, 26.980
6639.818, 66.945, 30.280
6736.397, 68.033, 31.529
6834.380, 69.151, 30.471
6933.789, 70.222, 27.322
7034.643, 71.138, 21.726
7136.964, 71.701, 14.539
7240.773, 71.951, 6.958
7346.093, 71.907, -0.523
7452.944, 71.624, -7.340
7561.350, 71.164, -13.308
7671.332, 70.582, -18.328
7782.915, 69.930, -22.561
7896.120, 69.193, -26.255
8010.971, 68.334, -29.093
8127.493, 67.375, -30.602
8245.711, 66.403, -30.201
8365.647, 65.637, -28.033
8487.328, 65.228, -25.781
8610.779, 65.049, -25.273
8736.026, 64.820, -27.213
8863.095, 64.316, -31.698
8992.011, 62.910, -37.095
9122.803, 60.635, -36.522
9255.497, 58.090, -26.694
9390.121, 56.469, -6.863
9526.704, 57.066, 13.965
9665.273, 58.813, 26.397
9805.857, 60.469, 31.222
9948.487, 61.751, 32.238
10093.191, 62.773, 31.790
10240.000, 63.627, 29.596
10388.944, 64.088, 26.188
10540.055, 64.225, 23.714
10693.363, 64.270, 22.734
10848.902, 64.389, 23.028
11006.703, 64.790, 23.668
11166.799, 65.414, 22.143
11329.224, 65.868, 17.895
11494.012, 65.924, 12.078
11661.195, 65.490, 7.066
11830.812, 64.793, 4.727
12002.895, 64.197, 4.969
12177.480, 63.888, 5.887
12354.606, 63.761, 5.810
12534.309, 63.606, 4.065
12716.624, 63.172, 0.894
12901.592, 62.221, -2.497
13089.250, 60.444, -1.905
13279.637, 58.473, 10.526
13472.794, 58.584, 29.681
13668.760, 60.241, 42.574
13867.577, 62.991, 50.280
14069.285, 65.754, 43.215
14273.928, 66.912, 27.213
14481.547, 66.718, 11.188
14692.186, 65.510, -0.852
14905.889, 63.667, -8.174
15122.700, 61.380, -7.729
15342.664, 59.468, -1.809
15565.829, 57.833, 10.164
15792.239, 57.509, 27.313
16021.942, 58.771, 42.186
16254.986, 60.906, 50.822
16491.422, 63.377, 51.930
16731.295, 65.559, 44.884
16974.656, 66.917, 31.516
17221.559, 67.131, 16.255
17472.053, 66.493, 4.249
17726.189, 65.587, -3.714
17984.021, 64.767, -9.801
18245.605, 63.935, -15.783
18510.994, 62.993, -21.549
18780.242, 61.901, -27.757
19053.408, 60.378, -33.181
19330.547, 58.496, -35.736
19611.715, 56.398, -32.660
19896.975, 55.080, -25.173
