* Measurement data measured by REW V5.19
* Source: ASIO MOTU M Series, In 1
* Format: 512k Log Swept Sine, 2 sweeps at -10.0 dBFS  With no timing reference
* Dated: 10 Sep, 2020 7:28:51 PM
* REW Settings:
*  C-weighting compensation: Off
*  Target level: 75.0 dB
* Note: ; 
* Measurement: Sep 10 19:28:51
* Smoothing: None
* Frequency Step: 1/48 octave
* Start Frequency: 10.1 Hz
*
* Freq(Hz), SPL(dB), Phase(degrees)
10.145, 63.308, -48.684
10.293, 63.451, -50.135
10.443, 63.595, -51.707
10.595, 63.718, -53.082
10.749, 63.833, -54.410
10.905, 63.943, -55.661
11.064, 64.050, -56.847
11.225, 64.161, -57.975
11.388, 64.276, -59.051
11.554, 64.399, -60.120
11.722, 64.528, -61.180
11.892, 64.661, -62.274
12.065, 64.797, -63.398
12.241, 64.929, -64.560
12.419, 65.059, -65.750
12.599, 65.183, -66.946
12.782, 65.301, -68.137
12.968, 65.415, -69.296
13.157, 65.528, -70.428
13.348, 65.644, -71.522
13.543, 65.764, -72.611
13.740, 65.891, -73.702
13.939, 66.022, -74.840
14.142, 66.154, -76.027
14.348, 66.283, -77.281
14.557, 66.404, -78.577
14.768, 66.513, -79.901
14.983, 66.611, -81.201
15.201, 66.701, -82.457
15.422, 66.787, -83.646
15.646, 66.878, -84.778
15.874, 66.976, -85.892
16.105, 67.084, -87.029
16.339, 67.196, -88.262
16.577, 67.303, -89.605
16.818, 67.394, -91.060
17.063, 67.456, -92.576
17.311, 67.484, -94.044
17.563, 67.481, -95.363
17.818, 67.456, -96.431
18.077, 67.430, -97.169
18.340, 67.430, -97.613
18.607, 67.474, -97.877
18.877, 67.572, -98.126
19.152, 67.720, -98.565
19.431, 67.890, -99.350
19.713, 68.051, -100.501
20.000, 68.174, -101.933
20.291, 68.240, -103.477
20.586, 68.245, -104.908
20.885, 68.206, -105.998
21.189, 68.158, -106.597
21.497, 68.152, -106.733
21.810, 68.227, -106.662
22.127, 68.391, -106.779
22.449, 68.607, -107.422
22.776, 68.816, -108.707
23.107, 68.959, -110.473
23.443, 69.005, -112.359
23.784, 68.965, -113.942
24.130, 68.891, -114.935
24.481, 68.852, -115.358
24.837, 68.896, -115.573
25.198, 69.014, -116.048
25.565, 69.146, -117.010
25.937, 69.235, -118.310
26.314, 69.264, -119.575
26.697, 69.269, -120.513
27.085, 69.307, -121.170
27.479, 69.401, -121.912
27.879, 69.511, -123.065
28.284, 69.570, -124.563
28.696, 69.546, -125.985
29.113, 69.474, -126.872
29.537, 69.438, -127.156
29.966, 69.493, -127.282
30.402, 69.609, -127.753
30.844, 69.713, -128.654
31.293, 69.766, -129.635
31.748, 69.795, -130.387
32.210, 69.848, -130.985
32.678, 69.924, -131.741
33.154, 69.977, -132.722
33.636, 69.984, -133.634
34.125, 69.983, -134.241
34.621, 70.019, -134.731
35.125, 70.073, -135.442
35.636, 70.091, -136.301
36.154, 70.074, -136.891
36.680, 70.090, -137.123
37.214, 70.173, -137.441
37.755, 70.265, -138.166
38.304, 70.307, -139.023
38.861, 70.331, -139.625
39.427, 70.385, -140.134
40.000, 70.450, -140.875
40.582, 70.478, -141.755
41.172, 70.471, -142.519
41.771, 70.451, -143.156
42.379, 70.414, -143.620
42.995, 70.400, -143.754
43.620, 70.466, -143.978
44.255, 70.545, -144.894
44.898, 70.519, -146.085
45.552, 70.440, -146.648
46.214, 70.451, -146.807
46.886, 70.530, -147.449
47.568, 70.561, -148.434
48.260, 70.560, -149.182
48.962, 70.581, -149.792
49.674, 70.605, -150.461
50.397, 70.615, -151.085
51.130, 70.614, -151.624
51.874, 70.610, -152.003
52.628, 70.636, -152.357
53.394, 70.660, -153.047
54.170, 70.624, -153.752
54.958, 70.599, -154.143
55.758, 70.612, -154.746
56.569, 70.583, -155.447
57.391, 70.583, -155.748
58.226, 70.656, -156.469
59.073, 70.624, -157.581
59.932, 70.544, -157.692
60.804, 70.628, -157.601
61.688, 70.694, -158.506
62.586, 70.633, -159.058
63.496, 70.653, -159.199
64.420, 70.661, -160.089
65.357, 70.565, -160.659
66.307, 70.520, -160.958
67.272, 70.445, -161.193
68.250, 70.502, -161.047
69.243, 70.544, -162.314
70.250, 70.408, -162.765
71.272, 70.395, -163.218
72.309, 70.180, -163.594
73.360, 70.116, -162.616
74.427, 70.121, -162.664
75.510, 70.063, -163.027
76.608, 69.880, -162.047
77.723, 70.273, -161.179
78.853, 70.166, -164.143
80.000, 69.997, -161.346
81.164, 70.342, -161.658
82.344, 70.327, -160.913
83.542, 70.579, -161.736
84.757, 70.336, -161.907
85.990, 70.495, -161.077
87.241, 70.540, -161.706
88.510, 70.791, -162.672
89.797, 70.721, -164.812
91.103, 70.823, -165.013
92.428, 70.744, -167.213
93.773, 70.583, -166.062
95.137, 70.604, -166.826
96.520, 70.519, -165.787
97.924, 70.560, -166.192
99.349, 70.680, -166.359
100.794, 70.563, -166.921
102.260, 70.517, -166.093
103.747, 70.834, -164.784
105.256, 70.845, -166.536
106.787, 71.041, -166.479
108.340, 71.027, -168.144
109.916, 71.064, -168.637
111.515, 71.119, -168.861
113.137, 71.144, -169.381
114.783, 71.211, -169.395
116.452, 71.292, -170.234
118.146, 71.207, -171.173
119.865, 71.261, -171.981
121.608, 71.287, -172.570
123.377, 71.193, -173.195
125.171, 71.287, -173.834
126.992, 71.271, -174.220
128.839, 71.283, -175.006
130.713, 71.267, -175.500
132.615, 71.189, -175.950
134.543, 71.292, -176.639
136.500, 71.136, -177.300
138.486, 71.122, -178.067
140.500, 71.128, -177.863
142.544, 71.078, -177.757
144.617, 71.092, -178.702
146.721, 70.896, -179.326
148.855, 70.942, -179.394
151.020, 70.867, 179.757
153.217, 70.826, 179.585
155.445, 70.818, 179.521
157.706, 70.798, 179.108
160.000, 70.804, 179.162
162.327, 70.729, 178.811
164.688, 70.745, 178.737
167.084, 70.720, 178.393
169.514, 70.706, 178.148
171.980, 70.710, 177.745
174.481, 70.757, 177.978
177.019, 70.607, 177.264
179.594, 70.678, 177.376
182.206, 70.614, 177.488
184.856, 70.594, 176.924
187.545, 70.627, 176.413
190.273, 70.585, 176.435
193.041, 70.593, 176.938
195.849, 70.505, 176.943
198.697, 70.487, 176.076
201.587, 70.474, 175.610
204.520, 70.514, 174.723
207.494, 70.570, 174.442
210.512, 70.506, 174.496
213.574, 70.448, 173.855
216.681, 70.439, 173.898
219.833, 70.409, 173.635
223.030, 70.403, 173.246
226.274, 70.336, 173.275
229.565, 70.382, 172.637
232.905, 70.437, 172.983
236.292, 70.307, 172.028
239.729, 70.342, 172.054
243.216, 70.273, 171.694
246.754, 70.203, 171.173
250.343, 70.232, 171.087
253.984, 70.201, 170.732
257.678, 70.164, 170.699
261.426, 70.204, 170.064
265.229, 70.082, 170.268
269.087, 70.099, 169.876
273.001, 70.165, 169.563
276.972, 69.970, 169.890
281.000, 70.044, 169.408
285.088, 69.999, 169.506
289.234, 70.003, 168.832
293.441, 70.006, 168.609
297.710, 69.943, 168.038
302.040, 69.974, 167.501
306.433, 69.828, 167.749
310.890, 69.801, 167.231
315.412, 69.772, 166.889
320.000, 69.778, 166.826
324.655, 69.751, 166.956
329.377, 69.722, 166.741
334.168, 69.697, 166.383
339.028, 69.642, 166.119
343.959, 69.666, 164.991
348.962, 69.595, 165.514
354.038, 69.485, 165.392
359.188, 69.497, 165.469
364.412, 69.460, 165.107
369.713, 69.476, 164.672
375.090, 69.541, 164.128
380.546, 69.374, 164.446
386.081, 69.379, 163.937
391.697, 69.264, 164.038
397.395, 69.354, 163.553
403.175, 69.325, 163.230
409.039, 69.234, 163.261
414.989, 69.331, 161.967
421.025, 69.130, 161.916
427.149, 69.172, 162.109
433.362, 69.189, 162.469
439.665, 69.173, 162.079
446.060, 69.131, 161.442
452.548, 69.007, 161.351
459.131, 68.920, 160.578
465.809, 68.860, 160.309
472.584, 68.757, 160.348
479.458, 68.917, 160.043
486.432, 68.857, 159.672
493.507, 68.763, 159.420
500.686, 68.486, 158.346
507.968, 68.588, 157.960
515.357, 68.422, 158.177
522.853, 68.452, 157.587
530.458, 68.472, 157.337
538.174, 68.039, 157.843
546.002, 68.332, 157.944
553.943, 68.019, 157.809
562.001, 68.165, 157.403
570.175, 67.822, 158.110
578.469, 67.952, 157.426
586.883, 67.907, 157.334
595.419, 67.873, 157.912
604.080, 67.827, 156.525
612.866, 67.725, 156.980
621.780, 67.661, 156.520
630.824, 67.754, 157.382
640.000, 67.618, 155.946
649.309, 67.388, 155.788
658.753, 67.438, 155.261
668.335, 67.309, 155.779
678.056, 67.099, 154.621
687.919, 67.174, 155.339
697.925, 66.964, 154.245
708.076, 67.013, 154.142
718.376, 66.880, 153.724
728.825, 66.844, 154.385
739.426, 66.817, 154.594
750.181, 66.720, 153.163
761.093, 66.555, 153.717
772.163, 66.528, 154.907
783.394, 66.484, 154.023
794.789, 66.213, 153.943
806.349, 66.078, 154.835
818.078, 66.030, 153.514
829.977, 66.009, 153.006
842.050, 65.643, 152.716
854.297, 65.645, 155.047
866.724, 65.791, 153.415
879.330, 65.439, 153.870
892.120, 65.261, 153.707
905.097, 65.254, 155.193
918.262, 64.998, 153.984
931.618, 64.818, 155.660
945.169, 64.874, 155.682
958.917, 64.811, 156.106
972.864, 64.652, 155.560
987.015, 64.460, 155.340
1001.371, 64.523, 157.480
1015.937, 64.579, 157.919
1030.714, 64.403, 158.712
1045.706, 64.268, 158.489
1060.916, 64.245, 156.865
1076.347, 63.869, 160.197
1092.003, 63.902, 159.999
1107.887, 63.720, 160.681
1124.001, 63.749, 159.617
1140.350, 63.464, 160.699
1156.937, 63.362, 162.761
1173.765, 63.421, 162.081
1190.838, 63.446, 164.986
1208.159, 63.271, 163.743
1225.732, 63.190, 164.371
1243.561, 63.258, 164.935
1261.649, 63.231, 165.178
1280.000, 63.322, 165.535
1298.618, 63.094, 167.688
1317.507, 63.273, 167.454
1336.670, 63.340, 167.113
1356.113, 63.130, 169.584
1375.838, 62.953, 168.224
1395.850, 62.946, 169.869
1416.153, 63.079, 170.267
1436.751, 63.150, 171.527
1457.649, 63.304, 170.815
1478.851, 62.642, 170.745
1500.362, 62.723, 172.225
1522.185, 62.857, 172.575
1544.326, 62.673, 172.812
1566.789, 62.617, 173.604
1589.578, 62.708, 175.898
1612.699, 62.475, 174.937
1636.156, 62.527, 177.236
1659.955, 62.567, 178.422
1684.099, 62.785, -179.533
1708.595, 62.637, -179.935
1733.447, 62.994, -179.967
1758.661, 63.144, 179.816
1784.241, 63.198, 178.436
1810.193, 63.381, 177.550
1836.523, 62.983, 175.961
1863.236, 63.073, 176.685
1890.338, 62.529, 176.488
1917.833, 62.630, 175.797
1945.729, 62.394, 177.166
1974.030, 62.286, 178.375
2002.743, 61.761, 176.625
2031.873, 61.709, 176.121
2061.428, 61.583, 177.493
2091.412, 61.427, 179.637
2121.832, 60.647, -179.313
2152.695, 60.623, -176.678
2184.007, 60.149, -175.494
2215.774, 59.949, -174.763
2248.003, 59.405, -173.329
2280.701, 59.096, -165.513
2313.874, 58.569, -162.001
2347.530, 58.763, -154.842
2381.676, 59.604, -150.488
2416.318, 59.203, -143.064
2451.464, 60.017, -138.537
2487.122, 60.626, -133.990
2523.298, 60.787, -132.745
2560.000, 62.044, -133.631
2597.236, 62.444, -128.887
2635.014, 62.927, -128.671
2673.341, 63.408, -127.123
2712.226, 64.042, -129.841
2751.676, 64.673, -133.593
2791.700, 65.041, -131.536
2832.306, 65.442, -130.012
2873.503, 65.647, -133.325
2915.299, 66.217, -136.676
2957.703, 66.651, -134.515
3000.724, 67.061, -136.176
3044.370, 67.043, -140.585
3088.652, 67.331, -142.868
3133.577, 67.485, -142.782
3179.156, 67.325, -143.735
3225.398, 67.552, -147.108
3272.312, 67.684, -146.251
3319.909, 67.338, -148.940
3368.198, 67.763, -149.920
3417.190, 67.518, -149.282
3466.894, 67.716, -149.685
3517.321, 67.973, -150.823
3568.482, 68.129, -152.924
3620.387, 68.060, -150.026
3673.046, 68.585, -152.414
3726.472, 68.263, -155.448
3780.675, 68.813, -158.385
3835.666, 68.426, -159.122
3891.457, 68.684, -162.629
3948.060, 68.088, -163.256
4005.486, 67.648, -166.974
4063.747, 67.362, -167.535
4122.855, 66.345, -168.565
4182.824, 65.855, -164.042
4243.664, 65.927, -162.856
4305.390, 65.164, -157.697
4368.013, 65.053, -154.967
4431.547, 65.591, -153.613
4496.005, 65.189, -148.610
4561.401, 65.674, -147.831
4627.749, 65.464, -146.079
4695.061, 65.057, -138.792
4763.352, 65.820, -133.543
4832.637, 66.589, -121.164
4902.929, 68.454, -119.969
4974.244, 69.458, -120.357
5046.596, 70.918, -124.240
5120.000, 71.740, -130.302
5194.472, 72.546, -134.741
5270.027, 73.317, -140.232
5346.682, 73.696, -145.397
5424.451, 74.041, -149.693
5503.352, 74.376, -155.149
5583.399, 74.466, -160.640
5664.612, 74.679, -166.249
5747.006, 74.605, -171.052
5830.598, 74.573, -177.403
5915.406, 73.852, 177.171
6001.447, 73.797, 171.654
6088.740, 73.375, 168.199
6177.303, 72.703, 165.812
6267.154, 72.030, 162.739
6358.312, 71.300, 161.825
6450.796, 70.531, 160.183
6544.625, 70.664, 161.104
6639.818, 69.662, 161.237
6736.397, 69.761, 160.656
6834.380, 69.196, 161.972
6933.789, 69.366, 164.837
7034.643, 69.505, 164.896
7136.964, 69.988, 163.644
7240.773, 70.424, 162.737
7346.093, 70.968, 157.763
7452.944, 71.409, 153.643
7561.350, 71.585, 144.367
7671.332, 71.560, 136.347
7782.915, 71.330, 124.766
7896.120, 70.527, 114.815
8010.971, 69.845, 101.568
8127.493, 67.995, 84.685
8245.711, 65.032, 66.770
8365.647, 59.494, 58.319
8487.328, 54.430, 54.349
8610.779, 47.273, -0.311
8736.026, 51.540, -102.842
8863.095, 58.001, -135.480
8992.011, 58.619, -154.674
9122.803, 59.547, -154.487
9255.497, 60.439, -158.168
9390.121, 61.296, -161.369
9526.704, 62.047, -162.147
9665.273, 62.805, -166.723
9805.857, 63.368, -172.027
9948.487, 63.221, -177.441
10093.191, 62.977, 177.585
10240.000, 62.175, 175.400
10388.944, 61.941, -179.338
10540.055, 62.691, -173.914
10693.363, 64.232, -173.127
10848.902, 66.496, -179.923
11006.703, 68.099, 156.960
11166.799, 67.548, 128.678
11329.224, 65.322, 108.192
11494.012, 62.039, 92.941
11661.195, 58.742, 81.635
11830.812, 53.094, 66.805
12002.895, 44.036, 53.103
12177.480, 43.444, -138.778
12354.606, 48.300, -165.535
12534.309, 52.639, -171.923
12716.624, 54.039, 168.677
12901.592, 54.349, 153.383
13089.250, 52.169, 135.638
13279.637, 50.072, 111.520
13472.794, 47.059, 86.385
13668.760, 46.118, 28.756
13867.577, 46.687, -9.478
14069.285, 49.527, -33.324
14273.928, 53.573, -57.401
14481.547, 55.314, -79.293
14692.186, 55.787, -97.891
14905.889, 55.295, -108.820
15122.700, 55.157, -115.805
15342.664, 54.881, -126.441
15565.829, 54.449, -124.619
15792.239, 54.581, -126.249
16021.942, 54.558, -130.578
16254.986, 54.452, -136.505
16491.422, 54.098, -141.177
16731.295, 53.340, -148.407
16974.656, 52.859, -155.276
17221.559, 50.877, -158.234
17472.053, 49.465, -162.634
17726.189, 48.173, -161.289
17984.021, 46.493, -154.254
18245.605, 45.501, -147.681
18510.994, 45.002, -141.180
18780.242, 45.788, -139.324
19053.408, 45.796, -143.255
19330.547, 45.586, -145.651
19611.715, 44.816, -154.538
19896.975, 43.037, -157.563
