* Measurement data measured by REW V5.19
* Source: ASIO MOTU M Series, In 1
* Format: 512k Log Swept Sine, 2 sweeps at -10.0 dBFS  With no timing reference
* Dated: 10 Sep, 2020 7:28:29 PM
* REW Settings:
*  C-weighting compensation: Off
*  Target level: 75.0 dB
* Note: ; 
* Measurement: Sep 10 19:28:29
* Smoothing: None
* Frequency Step: 1/48 octave
* Start Frequency: 10.1 Hz
*
* Freq(Hz), SPL(dB), Phase(degrees)
10.145, 63.544, -53.491
10.293, 63.719, -54.325
10.443, 63.896, -55.303
10.595, 64.083, -56.281
10.749, 64.270, -57.335
10.905, 64.447, -58.471
11.064, 64.616, -59.669
11.225, 64.770, -60.885
11.388, 64.911, -62.117
11.554, 65.039, -63.305
11.722, 65.155, -64.452
11.892, 65.266, -65.531
12.065, 65.374, -66.547
12.241, 65.485, -67.518
12.419, 65.599, -68.454
12.599, 65.720, -69.399
12.782, 65.844, -70.364
12.968, 65.970, -71.384
13.157, 66.094, -72.457
13.348, 66.214, -73.595
13.543, 66.325, -74.776
13.740, 66.426, -75.995
13.939, 66.517, -77.223
14.142, 66.599, -78.452
14.348, 66.673, -79.665
14.557, 66.741, -80.858
14.768, 66.805, -82.026
14.983, 66.866, -83.170
15.201, 66.926, -84.288
15.422, 66.985, -85.377
15.646, 67.046, -86.436
15.874, 67.112, -87.467
16.105, 67.183, -88.470
16.339, 67.262, -89.462
16.577, 67.350, -90.454
16.818, 67.447, -91.461
17.063, 67.552, -92.497
17.311, 67.663, -93.570
17.563, 67.781, -94.687
17.818, 67.902, -95.855
18.077, 68.024, -97.083
18.340, 68.144, -98.377
18.607, 68.256, -99.730
18.877, 68.357, -101.122
19.152, 68.441, -102.515
19.431, 68.510, -103.857
19.713, 68.571, -105.126
20.000, 68.628, -106.337
20.291, 68.682, -107.539
20.586, 68.725, -108.781
20.885, 68.741, -110.064
21.189, 68.708, -111.272
21.497, 68.623, -112.152
21.810, 68.514, -112.412
22.127, 68.449, -111.926
22.449, 68.508, -110.956
22.776, 68.727, -110.156
23.107, 69.058, -110.219
23.443, 69.390, -111.436
23.784, 69.616, -113.545
24.130, 69.678, -115.897
24.481, 69.596, -117.751
24.837, 69.465, -118.630
25.198, 69.406, -118.659
25.565, 69.480, -118.553
25.937, 69.639, -119.023
26.314, 69.771, -120.184
26.697, 69.809, -121.529
27.085, 69.778, -122.418
27.479, 69.779, -122.683
27.879, 69.885, -122.862
28.284, 70.053, -123.663
28.696, 70.169, -125.212
29.113, 70.149, -126.913
29.537, 70.021, -127.930
29.966, 69.914, -127.953
30.402, 69.939, -127.524
30.844, 70.081, -127.536
31.293, 70.227, -128.302
31.748, 70.298, -129.405
32.210, 70.309, -130.313
32.678, 70.327, -130.912
33.154, 70.382, -131.481
33.636, 70.449, -132.247
34.125, 70.498, -133.130
34.621, 70.535, -133.971
35.125, 70.577, -134.785
35.636, 70.622, -135.695
36.154, 70.643, -136.686
36.680, 70.633, -137.578
37.214, 70.615, -138.238
37.755, 70.613, -138.733
38.304, 70.629, -139.190
38.861, 70.655, -139.643
39.427, 70.697, -140.097
40.000, 70.759, -140.670
40.582, 70.819, -141.472
41.172, 70.850, -142.384
41.771, 70.862, -143.215
42.379, 70.880, -143.995
42.995, 70.893, -144.829
43.620, 70.889, -145.555
44.255, 70.904, -146.069
44.898, 70.954, -146.675
45.552, 70.980, -147.505
46.214, 70.954, -148.064
46.886, 70.962, -148.086
47.568, 71.066, -148.194
48.260, 71.185, -148.966
48.962, 71.214, -150.112
49.674, 71.155, -150.965
50.397, 71.095, -151.252
51.130, 71.106, -151.429
51.874, 71.142, -152.013
52.628, 71.137, -152.778
53.394, 71.116, -153.389
54.170, 71.108, -153.939
54.958, 71.112, -154.414
55.758, 71.149, -154.920
56.569, 71.182, -155.654
57.391, 71.183, -156.340
58.226, 71.173, -156.918
59.073, 71.143, -157.308
59.932, 71.153, -157.488
60.804, 71.175, -158.088
61.688, 71.146, -158.583
62.586, 71.169, -159.251
63.496, 71.068, -160.199
64.420, 71.060, -159.738
65.357, 71.270, -161.186
66.307, 71.035, -163.040
67.272, 71.008, -161.719
68.250, 71.239, -163.372
69.243, 70.943, -164.643
70.250, 70.867, -163.300
71.272, 70.962, -163.339
72.309, 70.961, -164.014
73.360, 70.853, -164.671
74.427, 70.737, -164.994
75.510, 70.595, -164.748
76.608, 70.697, -164.535
77.723, 70.579, -165.700
78.853, 70.505, -164.188
80.000, 70.676, -164.597
81.164, 70.554, -164.484
82.344, 70.656, -163.844
83.542, 70.695, -164.151
84.757, 70.750, -163.860
85.990, 70.967, -163.955
87.241, 71.098, -165.427
88.510, 71.131, -165.602
89.797, 71.300, -167.265
91.103, 71.064, -168.557
92.428, 70.898, -168.547
93.773, 70.814, -168.183
95.137, 70.723, -168.562
96.520, 70.704, -167.396
97.924, 70.815, -168.141
99.349, 70.692, -167.163
100.794, 70.901, -167.055
102.260, 70.898, -167.687
103.747, 70.830, -167.530
105.256, 71.040, -166.947
106.787, 71.273, -168.196
108.340, 71.217, -168.965
109.916, 71.315, -168.514
111.515, 71.396, -169.401
113.137, 71.403, -169.707
114.783, 71.447, -170.130
116.452, 71.472, -171.155
118.146, 71.530, -171.361
119.865, 71.553, -172.003
121.608, 71.525, -173.265
123.377, 71.564, -173.469
125.171, 71.586, -174.529
126.992, 71.604, -174.533
128.839, 71.563, -175.140
130.713, 71.504, -175.966
132.615, 71.595, -175.976
134.543, 71.453, -176.936
136.500, 71.502, -177.006
138.486, 71.580, -178.118
140.500, 71.395, -179.029
142.544, 71.367, -178.883
144.617, 71.370, -179.477
146.721, 71.312, -179.350
148.855, 71.301, 179.914
151.020, 71.228, 179.588
153.217, 71.231, 179.102
155.445, 71.161, 179.027
157.706, 71.169, 178.506
160.000, 71.126, 178.875
162.327, 71.065, 178.845
164.688, 71.084, 178.333
167.084, 71.070, 177.798
169.514, 71.035, 177.505
171.980, 71.024, 177.742
174.481, 71.016, 177.319
177.019, 70.953, 176.587
179.594, 70.998, 177.132
182.206, 71.009, 176.753
184.856, 71.049, 175.943
187.545, 70.961, 175.650
190.273, 70.938, 175.843
193.041, 70.948, 175.183
195.849, 70.896, 174.529
198.697, 70.836, 174.657
201.587, 70.825, 173.877
204.520, 70.862, 174.215
207.494, 70.897, 173.657
210.512, 70.847, 173.644
213.574, 70.762, 173.303
216.681, 70.776, 173.111
219.833, 70.786, 172.742
223.030, 70.737, 172.261
226.274, 70.662, 172.462
229.565, 70.647, 172.359
232.905, 70.663, 171.789
236.292, 70.632, 171.215
239.729, 70.655, 170.918
243.216, 70.669, 170.848
246.754, 70.672, 170.253
250.343, 70.554, 170.462
253.984, 70.578, 169.800
257.678, 70.477, 169.829
261.426, 70.553, 169.357
265.229, 70.514, 169.034
269.087, 70.472, 168.724
273.001, 70.466, 168.924
276.972, 70.403, 168.453
281.000, 70.383, 168.071
285.088, 70.310, 167.833
289.234, 70.274, 167.750
293.441, 70.248, 167.796
297.710, 70.212, 167.203
302.040, 70.297, 167.194
306.433, 70.259, 167.048
310.890, 70.142, 166.833
315.412, 70.164, 166.223
320.000, 70.142, 165.932
324.655, 70.025, 165.556
329.377, 70.001, 165.147
334.168, 70.051, 164.925
339.028, 69.956, 165.358
343.959, 69.920, 165.199
348.962, 69.958, 164.731
354.038, 69.924, 164.108
359.188, 69.794, 163.499
364.412, 69.766, 163.812
369.713, 69.782, 163.777
375.090, 69.741, 163.735
380.546, 69.629, 163.235
386.081, 69.734, 163.008
391.697, 69.642, 162.735
397.395, 69.715, 162.564
403.175, 69.677, 162.097
409.039, 69.657, 162.166
414.989, 69.527, 161.969
421.025, 69.498, 161.940
427.149, 69.480, 161.371
433.362, 69.399, 160.943
439.665, 69.276, 159.790
446.060, 69.349, 159.953
452.548, 69.350, 160.166
459.131, 69.302, 160.088
465.809, 69.181, 159.172
472.584, 69.164, 159.083
479.458, 69.062, 158.811
486.432, 68.940, 158.295
493.507, 68.982, 158.373
500.686, 68.944, 157.586
507.968, 68.791, 156.831
515.357, 68.787, 157.204
522.853, 68.694, 158.487
530.458, 68.654, 157.370
538.174, 68.657, 156.615
546.002, 68.489, 156.547
553.943, 68.544, 156.615
562.001, 68.472, 156.599
570.175, 68.445, 155.914
578.469, 68.388, 155.797
586.883, 68.187, 155.475
595.419, 68.213, 154.579
604.080, 68.217, 154.097
612.866, 68.100, 154.219
621.780, 67.983, 153.932
630.824, 67.904, 153.954
640.000, 67.732, 153.287
649.309, 67.754, 153.715
658.753, 67.478, 152.687
668.335, 67.458, 153.371
678.056, 67.442, 153.111
687.919, 67.226, 152.879
697.925, 67.238, 151.804
708.076, 67.157, 152.055
718.376, 67.169, 152.993
728.825, 66.994, 152.276
739.426, 66.854, 152.029
750.181, 66.848, 152.161
761.093, 66.682, 150.938
772.163, 66.570, 152.021
783.394, 66.451, 152.005
794.789, 66.422, 151.526
806.349, 66.165, 150.816
818.078, 66.052, 151.863
829.977, 65.885, 151.065
842.050, 65.797, 150.452
854.297, 65.737, 149.993
866.724, 65.505, 150.275
879.330, 65.418, 151.195
892.120, 65.291, 151.818
905.097, 65.068, 152.808
918.262, 64.919, 153.380
931.618, 64.830, 153.807
945.169, 64.634, 153.413
958.917, 64.700, 154.558
972.864, 64.619, 155.518
987.015, 64.501, 154.290
1001.371, 64.390, 156.499
1015.937, 64.232, 158.358
1030.714, 64.303, 156.645
1045.706, 64.175, 157.565
1060.916, 64.219, 157.292
1076.347, 64.058, 159.690
1092.003, 63.832, 157.937
1107.887, 63.791, 160.496
1124.001, 63.712, 159.569
1140.350, 63.693, 160.169
1156.937, 63.499, 161.189
1173.765, 63.591, 162.393
1190.838, 63.534, 159.458
1208.159, 63.385, 162.762
1225.732, 63.441, 162.639
1243.561, 63.221, 163.896
1261.649, 63.284, 165.180
1280.000, 63.177, 165.264
1298.618, 63.036, 166.400
1317.507, 63.157, 165.681
1336.670, 63.208, 167.633
1356.113, 63.106, 167.975
1375.838, 63.145, 168.280
1395.850, 63.036, 168.861
1416.153, 62.883, 169.017
1436.751, 62.988, 169.848
1457.649, 62.924, 170.283
1478.851, 62.944, 170.239
1500.362, 62.757, 171.511
1522.185, 62.821, 170.976
1544.326, 62.700, 171.730
1566.789, 62.613, 172.397
1589.578, 62.705, 173.684
1612.699, 62.390, 176.009
1636.156, 62.469, 176.877
1659.955, 62.547, 176.231
1684.099, 62.559, 178.337
1708.595, 62.390, 179.525
1733.447, 63.030, 179.306
1758.661, 63.022, -179.719
1784.241, 63.042, 178.468
1810.193, 63.113, 177.613
1836.523, 63.142, 176.554
1863.236, 62.682, 177.469
1890.338, 62.453, 175.417
1917.833, 62.496, 174.643
1945.729, 62.534, 176.833
1974.030, 61.923, 175.973
2002.743, 61.969, 177.924
2031.873, 61.484, 178.046
2061.428, 61.226, 179.484
2091.412, 60.958, 177.662
2121.832, 61.048, 178.944
2152.695, 60.606, -177.263
2184.007, 60.212, -175.355
2215.774, 59.394, -172.531
2248.003, 58.832, -167.232
2280.701, 58.411, -163.158
2313.874, 58.121, -159.122
2347.530, 58.739, -153.707
2381.676, 58.581, -147.788
2416.318, 59.707, -142.448
2451.464, 59.757, -137.416
2487.122, 61.341, -136.297
2523.298, 61.572, -133.582
2560.000, 62.656, -133.131
2597.236, 62.529, -130.566
2635.014, 63.644, -132.657
2673.341, 63.875, -128.538
2712.226, 64.167, -132.354
2751.676, 65.003, -130.906
2791.700, 65.111, -131.473
2832.306, 65.920, -132.421
2873.503, 66.240, -133.914
2915.299, 66.443, -135.053
2957.703, 67.045, -136.242
3000.724, 67.067, -138.412
3044.370, 67.097, -142.606
3088.652, 67.580, -143.151
3133.577, 67.741, -144.111
3179.156, 67.913, -145.224
3225.398, 67.893, -148.128
3272.312, 67.612, -148.704
3319.909, 67.552, -147.432
3368.198, 67.577, -149.147
3417.190, 67.873, -149.450
3466.894, 67.906, -150.264
3517.321, 68.232, -151.111
3568.482, 68.395, -153.814
3620.387, 68.241, -153.809
3673.046, 68.276, -156.308
3726.472, 68.862, -155.619
3780.675, 69.032, -157.274
3835.666, 68.965, -161.811
3891.457, 68.940, -165.832
3948.060, 68.399, -166.483
4005.486, 67.804, -169.508
4063.747, 67.179, -171.160
4122.855, 67.096, -168.954
4182.824, 65.973, -169.798
4243.664, 66.140, -163.616
4305.390, 65.967, -158.820
4368.013, 66.426, -162.175
4431.547, 65.324, -156.171
4496.005, 65.900, -154.060
4561.401, 65.636, -148.003
4627.749, 65.604, -148.961
4695.061, 65.301, -140.625
4763.352, 65.995, -134.745
4832.637, 67.191, -127.910
4902.929, 68.447, -125.109
4974.244, 69.852, -124.673
5046.596, 71.012, -128.655
5120.000, 72.160, -135.091
5194.472, 72.634, -139.349
5270.027, 73.193, -144.481
5346.682, 73.427, -150.750
5424.451, 73.789, -153.747
5503.352, 74.096, -160.001
5583.399, 74.350, -164.032
5664.612, 74.229, -170.437
5747.006, 74.250, -175.088
5830.598, 74.156, 178.680
5915.406, 73.809, 174.158
6001.447, 73.457, 170.192
6088.740, 72.838, 166.233
6177.303, 72.264, 163.408
6267.154, 71.696, 161.791
6358.312, 71.045, 161.750
6450.796, 70.806, 159.928
6544.625, 70.311, 160.423
6639.818, 70.121, 162.303
6736.397, 69.876, 162.463
6834.380, 69.707, 163.039
6933.789, 69.810, 165.209
7034.643, 70.215, 165.827
7136.964, 70.543, 163.746
7240.773, 71.215, 162.664
7346.093, 71.673, 156.551
7452.944, 72.498, 152.779
7561.350, 73.019, 147.454
7671.332, 73.352, 134.437
7782.915, 73.274, 125.039
7896.120, 72.905, 112.160
8010.971, 72.730, 98.997
8127.493, 71.601, 81.970
8245.711, 69.855, 66.750
8365.647, 67.838, 53.138
8487.328, 65.712, 40.474
8610.779, 64.791, 21.865
8736.026, 63.676, -15.623
8863.095, 60.972, -48.828
8992.011, 60.534, -78.828
9122.803, 61.486, -102.518
9255.497, 62.366, -121.463
9390.121, 62.689, -138.310
9526.704, 62.956, -146.636
9665.273, 63.536, -156.187
9805.857, 63.987, -166.666
9948.487, 64.094, -177.665
10093.191, 63.378, 171.768
10240.000, 62.259, 164.645
10388.944, 60.909, 160.595
10540.055, 59.132, 164.110
10693.363, 58.654, 171.460
10848.902, 59.584, -174.948
11006.703, 62.754, -174.866
11166.799, 64.934, 161.475
11329.224, 63.905, 132.899
11494.012, 61.304, 113.197
11661.195, 58.628, 94.798
11830.812, 53.780, 76.124
12002.895, 46.701, 35.151
12177.480, 46.229, -98.611
12354.606, 51.007, -143.708
12534.309, 54.060, -164.806
12716.624, 54.330, 177.671
12901.592, 53.005, 161.351
13089.250, 51.496, 144.685
13279.637, 49.488, 124.355
13472.794, 46.587, 74.118
13668.760, 46.294, 14.759
13867.577, 48.151, -23.608
14069.285, 51.048, -47.960
14273.928, 53.108, -71.304
14481.547, 53.977, -90.262
14692.186, 53.718, -98.468
14905.889, 53.911, -102.079
15122.700, 54.775, -106.543
15342.664, 54.351, -116.320
15565.829, 53.716, -117.921
15792.239, 53.961, -116.817
16021.942, 54.470, -119.178
16254.986, 54.566, -123.370
16491.422, 54.644, -128.143
16731.295, 54.189, -134.394
16974.656, 54.322, -141.551
17221.559, 52.837, -155.711
17472.053, 50.913, -157.619
17726.189, 49.532, -156.269
17984.021, 48.255, -150.052
18245.605, 47.788, -147.071
18510.994, 47.989, -145.893
18780.242, 47.314, -146.718
19053.408, 46.507, -146.473
19330.547, 46.132, -149.313
19611.715, 46.000, -156.548
19896.975, 44.836, -163.495
