* Measurement data measured by REW V5.19
* Source: ASIO MOTU M Series, In 1
* Format: 1M Log Swept Sine, 2 sweeps at -3.0 dBFS  With no timing reference
* Dated: 26 Sep, 2020 5:34:53 PM
* REW Settings:
*  C-weighting compensation: Off
*  Target level: 75.0 dB
* Note: ; 
* Measurement: Sep 26 17:34:53
* Smoothing: None
* Frequency Step: 1/48 octave
* Start Frequency: 10.1 Hz
*
* Freq(Hz), SPL(dB), Phase(degrees)
10.145, 59.931, 107.171
10.293, 59.967, 105.956
10.443, 60.005, 104.705
10.595, 60.056, 103.743
10.749, 60.122, 102.860
10.905, 60.212, 102.021
11.064, 60.324, 101.197
11.225, 60.460, 100.285
11.388, 60.619, 99.285
11.554, 60.789, 98.097
11.722, 60.968, 96.729
11.892, 61.137, 95.156
12.065, 61.295, 93.391
12.241, 61.424, 91.494
12.419, 61.525, 89.493
12.599, 61.587, 87.496
12.782, 61.615, 85.551
12.968, 61.610, 83.764
13.157, 61.585, 82.183
13.348, 61.546, 80.870
13.543, 61.516, 79.805
13.740, 61.502, 78.989
13.939, 61.521, 78.293
14.142, 61.572, 77.652
14.348, 61.656, 76.935
14.557, 61.756, 76.068
14.768, 61.863, 75.016
14.983, 61.955, 73.793
15.201, 62.025, 72.473
15.422, 62.066, 71.113
15.646, 62.079, 69.839
15.874, 62.075, 68.688
16.105, 62.062, 67.703
16.339, 62.057, 66.854
16.577, 62.063, 66.074
16.818, 62.085, 65.302
17.063, 62.114, 64.454
17.311, 62.141, 63.521
17.563, 62.157, 62.529
17.818, 62.157, 61.528
18.077, 62.144, 60.597
18.340, 62.130, 59.766
18.607, 62.123, 59.025
18.877, 62.131, 58.332
19.152, 62.158, 57.622
19.431, 62.197, 56.846
19.713, 62.244, 56.005
20.000, 62.298, 55.109
20.291, 62.361, 54.153
20.586, 62.433, 53.095
20.885, 62.508, 51.865
21.189, 62.562, 50.425
21.497, 62.564, 48.878
21.810, 62.493, 47.520
22.127, 62.366, 46.780
22.449, 62.253, 47.005
22.776, 62.273, 48.091
23.107, 62.511, 49.262
23.443, 62.940, 49.421
23.784, 63.411, 47.893
24.130, 63.751, 44.800
24.481, 63.833, 40.905
24.837, 63.614, 37.315
25.198, 63.158, 35.211
25.565, 62.651, 35.386
25.937, 62.350, 37.475
26.314, 62.384, 39.791
26.697, 62.621, 40.699
27.085, 62.821, 40.009
27.479, 62.848, 38.680
27.879, 62.732, 37.780
28.284, 62.605, 37.705
28.696, 62.577, 37.991
29.113, 62.642, 37.848
29.537, 62.702, 36.985
29.966, 62.685, 35.786
30.402, 62.598, 34.779
30.844, 62.504, 34.199
31.293, 62.456, 33.878
31.748, 62.460, 33.523
32.210, 62.488, 32.975
32.678, 62.509, 32.281
33.154, 62.505, 31.620
33.636, 62.493, 31.202
34.125, 62.513, 31.019
34.621, 62.581, 30.734
35.125, 62.644, 30.023
35.636, 62.628, 29.089
36.154, 62.527, 28.544
36.680, 62.431, 28.639
37.214, 62.415, 28.887
37.755, 62.431, 28.709
38.304, 62.398, 28.209
38.861, 62.314, 27.882
39.427, 62.238, 27.847
40.000, 62.202, 27.900
40.582, 62.207, 27.886
41.172, 62.250, 27.669
41.771, 62.302, 27.125
42.379, 62.325, 26.447
42.995, 62.344, 25.892
43.620, 62.380, 25.216
44.255, 62.360, 24.345
44.898, 62.260, 24.019
45.552, 62.225, 24.572
46.214, 62.335, 24.908
46.886, 62.432, 24.360
47.568, 62.423, 23.756
48.260, 62.406, 23.443
48.962, 62.376, 22.827
49.674, 62.233, 22.355
50.397, 62.093, 22.842
51.130, 62.098, 23.386
51.874, 62.118, 23.204
52.628, 62.086, 22.974
53.394, 62.064, 22.771
54.170, 62.009, 22.550
54.958, 61.981, 22.803
55.758, 62.037, 22.626
56.569, 61.965, 22.021
57.391, 61.840, 22.613
58.226, 61.886, 23.346
59.073, 61.896, 23.282
59.932, 61.845, 23.577
60.804, 61.818, 23.774
61.688, 61.727, 24.127
62.586, 61.706, 24.893
63.496, 61.713, 25.238
64.420, 61.720, 25.912
65.357, 61.831, 26.431
66.307, 61.945, 26.604
67.272, 62.093, 26.301
68.250, 62.009, 25.327
69.243, 61.784, 26.916
70.250, 61.945, 28.810
71.272, 61.962, 29.414
72.309, 62.051, 31.876
73.360, 62.424, 33.239
74.427, 62.825, 33.869
75.510, 63.335, 33.043
76.608, 63.647, 30.928
77.723, 63.809, 29.406
78.853, 64.061, 27.871
80.000, 64.124, 25.103
81.164, 64.050, 23.942
82.344, 64.101, 22.283
83.542, 64.011, 20.943
84.757, 63.958, 19.790
85.990, 63.877, 19.491
87.241, 63.879, 18.747
88.510, 63.803, 18.716
89.797, 63.791, 17.823
91.103, 63.647, 18.081
92.428, 63.707, 17.264
93.773, 63.543, 16.973
95.137, 63.524, 16.921
96.520, 63.520, 17.151
97.924, 63.488, 16.746
99.349, 63.499, 16.831
100.794, 63.435, 16.378
102.260, 63.432, 16.183
103.747, 63.396, 16.239
105.256, 63.399, 16.188
106.787, 63.376, 16.022
108.340, 63.323, 16.190
109.916, 63.295, 16.237
111.515, 63.335, 15.807
113.137, 63.372, 15.555
114.783, 63.252, 15.827
116.452, 63.364, 15.414
118.146, 63.347, 15.990
119.865, 63.496, 14.966
121.608, 63.496, 15.242
123.377, 63.569, 14.623
125.171, 63.423, 15.157
126.992, 63.354, 14.791
128.839, 63.029, 14.508
130.713, 63.270, 14.396
132.615, 63.361, 14.145
134.543, 63.331, 14.701
136.500, 63.350, 14.725
138.486, 63.288, 15.366
140.500, 63.317, 14.774
142.544, 63.268, 14.628
144.617, 63.320, 14.782
146.721, 63.359, 14.696
148.855, 63.291, 14.534
151.020, 63.348, 14.027
153.217, 63.362, 14.669
155.445, 63.271, 14.339
157.706, 63.350, 13.888
160.000, 63.123, 15.044
162.327, 63.151, 10.773
164.688, 63.946, 13.821
167.084, 63.381, 15.895
169.514, 63.193, 13.399
171.980, 63.477, 14.336
174.481, 62.858, 13.558
177.019, 63.426, 15.727
179.594, 63.268, 14.236
182.206, 63.255, 14.442
184.856, 63.104, 13.895
187.545, 63.054, 14.585
190.273, 63.170, 14.846
193.041, 63.307, 14.817
195.849, 63.346, 14.311
198.697, 63.332, 13.355
201.587, 63.290, 13.670
204.520, 63.165, 14.555
207.494, 63.076, 15.044
210.512, 63.273, 15.378
213.574, 63.464, 15.377
216.681, 63.411, 14.542
219.833, 63.332, 13.926
223.030, 63.221, 13.604
226.274, 63.112, 14.515
229.565, 63.152, 14.959
232.905, 63.116, 15.439
236.292, 63.188, 15.501
239.729, 63.114, 14.309
243.216, 62.934, 16.180
246.754, 63.147, 16.915
250.343, 63.140, 16.668
253.984, 63.059, 16.268
257.678, 63.017, 16.216
261.426, 63.009, 16.785
265.229, 63.093, 16.586
269.087, 63.373, 16.159
273.001, 63.366, 18.179
276.972, 63.094, 18.934
281.000, 63.005, 18.623
285.088, 63.014, 16.224
289.234, 63.540, 20.425
293.441, 62.771, 18.445
297.710, 63.244, 21.330
302.040, 63.386, 19.789
306.433, 63.059, 19.125
310.890, 63.187, 21.756
315.412, 63.200, 22.224
320.000, 63.256, 22.091
324.655, 63.240, 22.299
329.377, 63.268, 22.627
334.168, 63.503, 23.286
339.028, 63.478, 23.522
343.959, 63.476, 24.520
348.962, 63.606, 25.118
354.038, 63.714, 25.383
359.188, 63.763, 25.713
364.412, 63.904, 25.926
369.713, 64.076, 26.993
375.090, 64.002, 26.510
380.546, 64.375, 25.350
386.081, 64.221, 25.463
391.697, 64.448, 25.177
397.395, 64.483, 24.994
403.175, 64.529, 24.186
409.039, 64.525, 24.510
414.989, 64.581, 23.940
421.025, 64.614, 24.688
427.149, 64.775, 24.064
433.362, 64.602, 24.114
439.665, 64.644, 23.472
446.060, 64.641, 24.069
452.548, 64.694, 24.605
459.131, 64.720, 23.998
465.809, 64.790, 24.389
472.584, 64.792, 23.697
479.458, 64.920, 23.687
486.432, 64.962, 24.132
493.507, 64.961, 25.418
500.686, 64.757, 25.727
507.968, 64.643, 23.677
515.357, 64.964, 24.336
522.853, 64.866, 26.881
530.458, 64.962, 25.109
538.174, 64.796, 26.608
546.002, 64.995, 27.022
553.943, 65.210, 25.999
562.001, 64.915, 26.196
570.175, 65.056, 28.129
578.469, 65.100, 26.645
586.883, 65.273, 27.519
595.419, 65.045, 28.813
604.080, 65.326, 29.401
612.866, 65.248, 29.909
621.780, 65.519, 30.132
630.824, 65.349, 30.823
640.000, 65.642, 31.572
649.309, 65.839, 30.943
658.753, 65.836, 30.836
668.335, 65.992, 30.503
678.056, 66.053, 30.631
687.919, 66.135, 30.633
697.925, 66.183, 31.126
708.076, 66.109, 31.716
718.376, 66.367, 32.144
728.825, 66.471, 32.402
739.426, 66.628, 32.233
750.181, 66.896, 32.149
761.093, 67.039, 31.982
772.163, 67.092, 31.239
783.394, 67.150, 30.354
794.789, 67.230, 31.502
806.349, 67.343, 29.604
818.078, 67.387, 30.556
829.977, 67.539, 29.174
842.050, 67.646, 30.065
854.297, 67.859, 29.429
866.724, 67.778, 28.800
879.330, 67.917, 28.441
892.120, 67.843, 28.733
905.097, 67.980, 28.627
918.262, 68.006, 28.400
931.618, 68.267, 27.931
945.169, 68.320, 29.034
958.917, 68.360, 28.573
972.864, 68.521, 26.332
987.015, 68.651, 26.100
1001.371, 68.569, 26.921
1015.937, 68.549, 25.891
1030.714, 68.892, 25.303
1045.706, 69.037, 25.569
1060.916, 69.244, 23.839
1076.347, 69.256, 22.958
1092.003, 69.307, 21.422
1107.887, 69.087, 19.506
1124.001, 69.007, 20.170
1140.350, 69.049, 20.118
1156.937, 69.113, 20.431
1173.765, 69.002, 18.641
1190.838, 69.082, 19.089
1208.159, 69.061, 18.659
1225.732, 69.128, 18.918
1243.561, 69.365, 18.460
1261.649, 69.184, 18.752
1280.000, 69.457, 20.167
1298.618, 69.922, 19.147
1317.507, 70.217, 16.894
1336.670, 70.356, 14.533
1356.113, 70.275, 11.861
1375.838, 70.154, 10.141
1395.850, 69.995, 8.816
1416.153, 70.085, 7.217
1436.751, 69.913, 4.014
1457.649, 69.268, 4.991
1478.851, 69.545, 5.587
1500.362, 69.402, 2.733
1522.185, 69.208, 0.761
1544.326, 68.745, -0.436
1566.789, 68.587, 2.692
1589.578, 68.706, -1.173
1612.699, 68.405, 0.239
1636.156, 68.005, 0.406
1659.955, 67.907, -0.223
1684.099, 67.666, 0.931
1708.595, 67.702, 0.998
1733.447, 67.345, 1.499
1758.661, 67.189, 1.688
1784.241, 66.951, 2.955
1810.193, 66.999, 4.611
1836.523, 66.861, 5.324
1863.236, 66.649, 6.139
1890.338, 66.576, 8.728
1917.833, 66.865, 8.306
1945.729, 66.767, 6.473
1974.030, 66.172, 8.315
2002.743, 66.137, 11.185
2031.873, 66.384, 14.314
2061.428, 66.129, 14.025
2091.412, 66.062, 19.318
2121.832, 66.564, 18.148
2152.695, 66.840, 19.022
2184.007, 66.707, 19.994
2215.774, 67.192, 22.903
2248.003, 67.519, 20.804
2280.701, 67.358, 21.456
2313.874, 67.750, 23.624
2347.530, 67.747, 22.130
2381.676, 67.973, 23.854
2416.318, 68.486, 25.696
2451.464, 69.247, 22.750
2487.122, 68.893, 19.783
2523.298, 68.989, 20.342
2560.000, 69.320, 18.497
2597.236, 69.273, 18.665
2635.014, 69.228, 17.724
2673.341, 69.492, 16.367
2712.226, 69.459, 16.686
2751.676, 69.808, 16.683
2791.700, 69.729, 12.365
2832.306, 69.492, 15.225
2873.503, 69.922, 12.998
2915.299, 69.583, 11.428
2957.703, 69.891, 9.566
3000.724, 69.585, 10.640
3044.370, 69.789, 11.076
3088.652, 69.905, 7.135
3133.577, 69.712, 5.116
3179.156, 69.580, 6.344
3225.398, 69.406, 4.363
3272.312, 69.510, 5.405
3319.909, 69.020, 3.713
3368.198, 69.379, 4.022
3417.190, 69.332, 3.610
3466.894, 69.317, 1.821
3517.321, 69.187, -0.274
3568.482, 68.956, -0.160
3620.387, 68.547, -1.368
3673.046, 68.501, -1.862
3726.472, 68.386, -1.287
3780.675, 68.374, -3.494
3835.666, 67.971, -4.511
3891.457, 67.910, -3.980
3948.060, 67.460, -2.431
4005.486, 67.151, -3.778
4063.747, 67.118, -2.988
4122.855, 66.708, -1.320
4182.824, 66.482, 0.592
4243.664, 65.861, 2.142
4305.390, 65.971, 3.680
4368.013, 65.727, 7.822
4431.547, 65.961, 9.976
4496.005, 66.383, 13.428
4561.401, 66.301, 15.128
4627.749, 66.489, 15.384
4695.061, 66.557, 17.254
4763.352, 66.782, 18.714
4832.637, 67.519, 20.854
4902.929, 67.893, 20.931
4974.244, 68.374, 21.238
5046.596, 69.105, 20.928
5120.000, 69.556, 18.557
5194.472, 69.932, 15.081
5270.027, 70.495, 11.996
5346.682, 70.768, 7.371
5424.451, 70.669, 2.489
5503.352, 70.799, -1.706
5583.399, 70.793, -7.129
5664.612, 70.175, -12.048
5747.006, 69.742, -16.194
5830.598, 69.428, -20.614
5915.406, 68.667, -23.375
6001.447, 68.052, -25.575
6088.740, 67.003, -29.375
6177.303, 66.043, -28.971
6267.154, 65.313, -30.735
6358.312, 64.266, -27.279
6450.796, 64.096, -24.369
6544.625, 63.338, -22.414
6639.818, 62.566, -19.828
6736.397, 62.180, -17.296
6834.380, 61.679, -12.564
6933.789, 61.878, -12.577
7034.643, 61.270, -10.065
7136.964, 61.108, -7.391
7240.773, 60.717, -6.301
7346.093, 60.626, -2.932
7452.944, 59.604, -0.236
7561.350, 59.470, 11.670
7671.332, 60.303, 21.719
7782.915, 61.835, 25.037
7896.120, 63.282, 25.306
8010.971, 64.854, 20.418
8127.493, 65.872, 15.703
8245.711, 66.882, 5.558
8365.647, 67.647, -4.699
8487.328, 68.058, -21.638
8610.779, 67.530, -38.874
8736.026, 66.366, -60.154
8863.095, 63.497, -74.808
8992.011, 60.678, -83.796
9122.803, 58.142, -87.909
9255.497, 56.048, -96.955
9390.121, 54.177, -105.513
9526.704, 52.611, -113.501
9665.273, 52.666, -128.589
9805.857, 54.121, -147.825
9948.487, 55.149, -168.777
10093.191, 57.309, 173.709
10240.000, 58.858, 161.367
10388.944, 60.615, 146.543
10540.055, 62.282, 130.072
10693.363, 63.127, 117.662
10848.902, 62.827, 104.574
11006.703, 63.136, 95.612
11166.799, 63.125, 89.153
11329.224, 62.839, 81.580
11494.012, 62.755, 76.047
11661.195, 62.689, 72.450
11830.812, 62.430, 66.367
12002.895, 62.147, 60.569
12177.480, 61.927, 56.523
12354.606, 61.607, 53.392
12534.309, 61.234, 45.500
12716.624, 60.602, 36.466
12901.592, 59.332, 27.771
13089.250, 57.474, 21.185
13279.637, 54.456, 19.483
13472.794, 51.182, 30.084
13668.760, 51.090, 57.211
13867.577, 53.418, 61.169
14069.285, 54.190, 53.764
14273.928, 52.761, 45.751
14481.547, 50.652, 54.141
14692.186, 52.544, 65.299
14905.889, 55.176, 55.025
15122.700, 56.549, 33.543
15342.664, 55.956, 6.857
15565.829, 54.634, -15.755
15792.239, 53.542, -36.760
16021.942, 52.450, -57.635
16254.986, 52.191, -76.206
16491.422, 52.783, -90.037
16731.295, 53.926, -106.915
16974.656, 55.418, -124.052
17221.559, 56.416, -151.409
17472.053, 53.897, -178.236
17726.189, 50.061, 179.827
17984.021, 48.260, -178.650
18245.605, 45.186, -143.344
18510.994, 49.106, -124.690
18780.242, 51.918, -128.676
19053.408, 53.978, -140.592
19330.547, 53.449, -151.213
19611.715, 54.075, -148.885
19896.975, 53.357, -162.957
