* Measurement data measured by REW V5.19
* Source: ASIO MOTU M Series, In 1
* Format: 1M Log Swept Sine, 2 sweeps at -3.0 dBFS  With no timing reference
* Dated: 26 Sep, 2020 5:41:04 PM
* REW Settings:
*  C-weighting compensation: Off
*  Target level: 75.0 dB
* Note: ; 
* Measurement: Sep 26 17:41:04
* Smoothing: None
* Frequency Step: 1/48 octave
* Start Frequency: 10.1 Hz
*
* Freq(Hz), SPL(dB), Phase(degrees)
10.145, 60.174, 105.486
10.293, 60.220, 103.600
10.443, 60.265, 101.609
10.595, 60.270, 99.951
10.749, 60.260, 98.433
10.905, 60.242, 97.107
11.064, 60.221, 95.958
11.225, 60.210, 94.987
11.388, 60.212, 94.181
11.554, 60.239, 93.459
11.722, 60.289, 92.816
11.892, 60.365, 92.131
12.065, 60.465, 91.404
12.241, 60.578, 90.546
12.419, 60.702, 89.565
12.599, 60.822, 88.444
12.782, 60.938, 87.210
12.968, 61.039, 85.891
13.157, 61.125, 84.541
13.348, 61.194, 83.192
13.543, 61.253, 81.899
13.740, 61.302, 80.677
13.939, 61.353, 79.540
14.142, 61.407, 78.468
14.348, 61.473, 77.435
14.557, 61.548, 76.379
14.768, 61.633, 75.273
14.983, 61.719, 74.064
15.201, 61.799, 72.763
15.422, 61.864, 71.373
15.646, 61.906, 69.963
15.874, 61.927, 68.592
16.105, 61.926, 67.322
16.339, 61.916, 66.221
16.577, 61.909, 65.282
16.818, 61.915, 64.483
17.063, 61.946, 63.736
17.311, 61.995, 62.927
17.563, 62.054, 62.000
17.818, 62.108, 60.917
18.077, 62.138, 59.731
18.340, 62.136, 58.571
18.607, 62.109, 57.554
18.877, 62.070, 56.769
19.152, 62.045, 56.236
19.431, 62.056, 55.824
19.713, 62.103, 55.333
20.000, 62.166, 54.623
20.291, 62.216, 53.673
20.586, 62.226, 52.611
20.885, 62.191, 51.677
21.189, 62.141, 51.089
21.497, 62.129, 50.836
21.810, 62.195, 50.569
22.127, 62.324, 49.781
22.449, 62.438, 48.153
22.776, 62.437, 45.794
23.107, 62.238, 43.300
23.443, 61.829, 41.645
23.784, 61.316, 41.887
24.130, 60.947, 44.409
24.481, 60.975, 47.978
24.837, 61.405, 50.299
25.198, 61.968, 50.061
25.565, 62.390, 47.680
25.937, 62.543, 44.442
26.314, 62.449, 41.658
26.697, 62.245, 40.166
27.085, 62.112, 39.882
27.479, 62.139, 39.872
27.879, 62.261, 39.251
28.284, 62.349, 37.969
28.696, 62.345, 36.599
29.113, 62.282, 35.707
29.537, 62.244, 35.357
29.966, 62.271, 35.142
30.402, 62.333, 34.698
30.844, 62.379, 34.001
31.293, 62.382, 33.275
31.748, 62.354, 32.707
32.210, 62.319, 32.357
32.678, 62.300, 32.160
33.154, 62.310, 31.927
33.636, 62.327, 31.441
34.125, 62.304, 30.738
34.621, 62.225, 30.204
35.125, 62.150, 30.172
35.636, 62.160, 30.359
36.154, 62.244, 30.103
36.680, 62.303, 29.275
37.214, 62.287, 28.401
37.755, 62.251, 27.858
38.304, 62.238, 27.418
38.861, 62.204, 26.884
39.427, 62.130, 26.670
40.000, 62.101, 26.987
40.582, 62.174, 27.054
41.172, 62.221, 26.316
41.771, 62.129, 25.563
42.379, 62.013, 25.749
42.995, 62.053, 26.043
43.620, 62.111, 25.118
44.255, 61.954, 23.885
44.898, 61.701, 24.268
45.552, 61.702, 25.727
46.214, 61.911, 25.850
46.886, 61.995, 24.787
47.568, 61.971, 24.276
48.260, 62.037, 23.989
48.962, 62.081, 22.830
49.674, 61.940, 21.849
50.397, 61.790, 22.151
51.130, 61.789, 22.608
51.874, 61.788, 22.391
52.628, 61.715, 22.367
53.394, 61.694, 22.637
54.170, 61.683, 22.366
54.958, 61.551, 22.225
55.758, 61.455, 22.989
56.569, 61.457, 23.332
57.391, 61.337, 23.558
58.226, 61.293, 24.891
59.073, 61.410, 25.096
59.932, 61.283, 24.649
60.804, 61.125, 25.996
61.688, 61.167, 27.433
62.586, 61.263, 28.779
63.496, 61.499, 29.525
64.420, 61.598, 29.602
65.357, 61.781, 30.926
66.307, 62.161, 30.419
67.272, 62.203, 28.965
68.250, 62.179, 29.018
69.243, 62.184, 29.259
70.250, 62.264, 30.605
71.272, 62.578, 31.062
72.309, 62.709, 31.000
73.360, 63.009, 32.390
74.427, 63.483, 31.732
75.510, 63.739, 30.514
76.608, 63.992, 28.826
77.723, 64.023, 26.640
78.853, 63.972, 24.769
80.000, 63.785, 23.756
81.164, 63.873, 23.022
82.344, 63.760, 21.015
83.542, 63.747, 20.728
84.757, 63.728, 19.215
85.990, 63.687, 18.862
87.241, 63.640, 18.029
88.510, 63.604, 17.854
89.797, 63.521, 17.426
91.103, 63.522, 17.496
92.428, 63.468, 16.977
93.773, 63.455, 17.027
95.137, 63.447, 16.548
96.520, 63.386, 16.236
97.924, 63.320, 16.265
99.349, 63.332, 16.448
100.794, 63.311, 16.013
102.260, 63.285, 16.025
103.747, 63.238, 16.005
105.256, 63.276, 15.881
106.787, 63.207, 15.885
108.340, 63.234, 15.677
109.916, 63.174, 16.074
111.515, 63.250, 15.772
113.137, 63.280, 15.549
114.783, 63.164, 15.239
116.452, 63.263, 15.274
118.146, 63.232, 14.953
119.865, 63.161, 14.802
121.608, 63.264, 14.943
123.377, 63.160, 14.934
125.171, 63.167, 14.835
126.992, 63.179, 14.133
128.839, 63.078, 15.510
130.713, 63.105, 13.322
132.615, 63.232, 13.905
134.543, 63.350, 14.364
136.500, 63.180, 14.441
138.486, 63.138, 14.621
140.500, 63.156, 14.397
142.544, 63.161, 13.956
144.617, 63.233, 14.258
146.721, 63.203, 14.237
148.855, 63.160, 14.289
151.020, 63.169, 14.230
153.217, 63.176, 14.435
155.445, 63.146, 13.918
157.706, 63.150, 14.081
160.000, 63.174, 13.945
162.327, 63.159, 14.102
164.688, 63.160, 14.112
167.084, 63.171, 14.211
169.514, 63.158, 14.181
171.980, 63.158, 14.084
174.481, 63.194, 14.266
177.019, 63.180, 14.258
179.594, 63.224, 13.982
182.206, 63.207, 13.894
184.856, 63.197, 13.704
187.545, 63.137, 13.435
190.273, 63.234, 13.183
193.041, 63.277, 13.558
195.849, 63.280, 14.484
198.697, 63.188, 14.915
201.587, 63.171, 14.841
204.520, 63.192, 14.235
207.494, 63.192, 13.730
210.512, 63.211, 13.784
213.574, 63.141, 13.474
216.681, 63.134, 13.375
219.833, 63.091, 13.503
223.030, 63.070, 13.683
226.274, 63.104, 13.797
229.565, 63.074, 14.411
232.905, 63.032, 13.983
236.292, 62.968, 14.359
239.729, 62.946, 14.902
243.216, 63.029, 14.962
246.754, 62.983, 15.045
250.343, 62.918, 15.300
253.984, 62.928, 15.499
257.678, 62.916, 14.710
261.426, 62.739, 15.041
265.229, 63.154, 17.145
269.087, 62.984, 17.128
273.001, 62.947, 16.756
276.972, 63.037, 17.663
281.000, 62.959, 17.665
285.088, 62.981, 18.019
289.234, 63.071, 18.536
293.441, 63.073, 18.679
297.710, 63.054, 19.056
302.040, 63.059, 19.159
306.433, 63.086, 19.856
310.890, 63.105, 20.009
315.412, 63.157, 20.466
320.000, 63.128, 20.693
324.655, 63.195, 21.316
329.377, 63.234, 21.737
334.168, 63.268, 22.012
339.028, 63.344, 22.528
343.959, 63.383, 22.584
348.962, 63.472, 23.109
354.038, 63.622, 23.321
359.188, 63.779, 24.517
364.412, 63.744, 24.671
369.713, 64.041, 25.296
375.090, 64.049, 24.121
380.546, 64.128, 24.308
386.081, 64.193, 24.600
391.697, 64.173, 23.417
397.395, 64.364, 23.426
403.175, 64.399, 23.318
409.039, 64.395, 23.148
414.989, 64.467, 22.998
421.025, 64.437, 22.949
427.149, 64.401, 23.154
433.362, 64.497, 22.598
439.665, 64.476, 22.495
446.060, 64.571, 23.174
452.548, 64.611, 22.757
459.131, 64.605, 23.091
465.809, 64.659, 23.046
472.584, 64.670, 22.653
479.458, 64.715, 22.655
486.432, 64.750, 22.593
493.507, 64.746, 22.894
500.686, 64.775, 22.982
507.968, 64.778, 22.270
515.357, 64.728, 22.658
522.853, 64.748, 22.989
530.458, 64.768, 22.859
538.174, 64.817, 23.236
546.002, 64.808, 23.362
553.943, 64.794, 23.336
562.001, 64.792, 23.590
570.175, 64.836, 24.032
578.469, 64.786, 24.131
586.883, 64.783, 24.693
595.419, 64.773, 25.657
604.080, 64.832, 26.176
612.866, 64.906, 26.904
621.780, 65.015, 27.507
630.824, 65.101, 27.928
640.000, 65.255, 28.580
649.309, 65.284, 28.361
658.753, 65.388, 28.746
668.335, 65.490, 28.577
678.056, 65.516, 29.514
687.919, 65.622, 29.761
697.925, 65.743, 29.901
708.076, 65.858, 30.389
718.376, 65.976, 30.852
728.825, 66.203, 31.329
739.426, 66.310, 30.775
750.181, 66.533, 30.965
761.093, 66.680, 29.994
772.163, 66.692, 29.758
783.394, 66.787, 29.178
794.789, 66.841, 29.373
806.349, 66.845, 28.870
818.078, 66.962, 29.977
829.977, 67.104, 29.656
842.050, 67.296, 29.429
854.297, 67.404, 28.600
866.724, 67.338, 28.045
879.330, 67.399, 29.632
892.120, 67.526, 29.313
905.097, 67.712, 29.274
918.262, 67.866, 29.267
931.618, 68.127, 28.957
945.169, 68.267, 28.533
958.917, 68.464, 27.190
972.864, 68.506, 25.905
987.015, 68.628, 25.895
1001.371, 68.624, 24.416
1015.937, 68.680, 24.306
1030.714, 68.927, 23.458
1045.706, 68.916, 23.568
1060.916, 69.122, 22.434
1076.347, 69.196, 20.175
1092.003, 69.322, 19.507
1107.887, 69.034, 18.336
1124.001, 68.843, 18.354
1140.350, 69.002, 19.135
1156.937, 69.268, 18.457
1173.765, 69.116, 15.721
1190.838, 69.139, 15.932
1208.159, 68.965, 16.854
1225.732, 69.157, 17.021
1243.561, 69.440, 17.291
1261.649, 69.520, 16.652
1280.000, 69.865, 15.398
1298.618, 70.019, 13.991
1317.507, 70.160, 12.190
1336.670, 70.442, 10.463
1356.113, 70.065, 6.904
1375.838, 69.734, 6.436
1395.850, 69.784, 4.971
1416.153, 69.900, 4.489
1436.751, 69.742, 1.196
1457.649, 69.245, 1.884
1478.851, 69.449, 2.401
1500.362, 69.307, -1.565
1522.185, 69.218, -2.357
1544.326, 68.809, -3.632
1566.789, 68.507, -2.767
1589.578, 68.533, -5.758
1612.699, 67.987, -4.909
1636.156, 67.872, -3.007
1659.955, 67.513, -3.971
1684.099, 67.491, -2.238
1708.595, 67.463, -4.079
1733.447, 67.078, -2.582
1758.661, 66.824, -0.903
1784.241, 66.859, -0.727
1810.193, 66.711, 0.012
1836.523, 66.613, 2.227
1863.236, 66.747, 1.953
1890.338, 66.490, 2.236
1917.833, 66.590, 3.202
1945.729, 66.535, 2.379
1974.030, 66.102, 4.003
2002.743, 66.236, 7.570
2031.873, 66.498, 8.533
2061.428, 66.213, 7.210
2091.412, 66.080, 11.913
2121.832, 66.228, 12.044
2152.695, 66.633, 15.134
2184.007, 66.869, 12.765
2215.774, 66.789, 14.680
2248.003, 67.353, 14.208
2280.701, 67.189, 14.688
2313.874, 67.588, 15.851
2347.530, 67.596, 15.175
2381.676, 67.565, 15.390
2416.318, 67.756, 16.602
2451.464, 68.476, 15.205
2487.122, 68.226, 14.510
2523.298, 68.437, 13.814
2560.000, 68.629, 12.251
2597.236, 68.763, 11.960
2635.014, 68.658, 11.771
2673.341, 68.786, 9.098
2712.226, 68.628, 9.603
2751.676, 68.758, 11.789
2791.700, 68.730, 7.898
2832.306, 68.563, 11.396
2873.503, 69.238, 9.593
2915.299, 69.000, 8.663
2957.703, 69.455, 6.640
3000.724, 69.314, 6.645
3044.370, 69.465, 5.920
3088.652, 69.322, 3.321
3133.577, 69.425, 2.372
3179.156, 69.352, 3.686
3225.398, 69.391, -0.419
3272.312, 69.439, 0.921
3319.909, 69.132, -2.110
3368.198, 69.386, -2.739
3417.190, 69.333, -4.552
3466.894, 69.108, -5.916
3517.321, 69.261, -7.872
3568.482, 69.068, -8.288
3620.387, 68.737, -9.297
3673.046, 68.389, -11.662
3726.472, 68.329, -11.739
3780.675, 67.938, -14.987
3835.666, 67.577, -17.108
3891.457, 67.190, -17.571
3948.060, 66.662, -15.517
4005.486, 66.346, -15.735
4063.747, 66.230, -16.593
4122.855, 65.684, -16.455
4182.824, 65.005, -12.692
4243.664, 64.171, -9.152
4305.390, 63.963, -6.193
4368.013, 63.963, 0.642
4431.547, 64.040, 2.565
4496.005, 64.525, 5.990
4561.401, 64.577, 8.640
4627.749, 64.676, 11.121
4695.061, 65.120, 14.863
4763.352, 65.420, 15.354
4832.637, 65.989, 14.753
4902.929, 66.248, 18.260
4974.244, 66.810, 17.441
5046.596, 67.416, 17.212
5120.000, 67.906, 15.876
5194.472, 68.118, 13.553
5270.027, 68.467, 11.197
5346.682, 68.818, 8.128
5424.451, 68.875, 6.295
5503.352, 68.920, 3.218
5583.399, 68.985, 0.096
5664.612, 68.854, -2.269
5747.006, 68.702, -4.588
5830.598, 68.499, -8.806
5915.406, 68.215, -10.566
6001.447, 67.852, -11.262
6088.740, 67.485, -12.259
6177.303, 67.097, -13.803
6267.154, 66.753, -13.730
6358.312, 66.576, -13.628
6450.796, 66.600, -14.296
6544.625, 66.625, -16.759
6639.818, 66.075, -17.888
6736.397, 65.845, -18.255
6834.380, 65.485, -18.632
6933.789, 64.691, -20.410
7034.643, 64.220, -19.662
7136.964, 63.600, -19.360
7240.773, 62.810, -18.106
7346.093, 62.200, -14.233
7452.944, 61.678, -8.564
7561.350, 61.048, 2.337
7671.332, 62.378, 9.877
7782.915, 63.737, 12.466
7896.120, 65.238, 11.099
8010.971, 66.147, 6.561
8127.493, 67.101, 0.396
8245.711, 67.605, -6.771
8365.647, 68.183, -17.024
8487.328, 68.155, -28.249
8610.779, 67.616, -41.950
8736.026, 66.875, -56.471
8863.095, 64.616, -66.487
8992.011, 62.714, -72.328
9122.803, 60.798, -77.441
9255.497, 58.867, -84.600
9390.121, 56.853, -92.626
9526.704, 54.801, -100.937
9665.273, 53.248, -116.148
9805.857, 52.199, -143.903
9948.487, 53.234, -173.735
10093.191, 55.579, 156.223
10240.000, 57.826, 136.523
10388.944, 60.245, 119.717
10540.055, 61.871, 102.201
10693.363, 62.588, 88.754
10848.902, 62.922, 79.356
11006.703, 63.665, 73.502
11166.799, 64.217, 65.426
11329.224, 64.544, 56.705
11494.012, 64.554, 49.228
11661.195, 64.323, 43.817
11830.812, 64.151, 39.876
12002.895, 64.102, 37.304
12177.480, 64.488, 34.607
12354.606, 65.156, 29.780
12534.309, 65.780, 19.771
12716.624, 65.601, 6.101
12901.592, 64.549, -6.446
13089.250, 63.197, -14.566
13279.637, 61.772, -21.122
13472.794, 60.259, -27.178
13668.760, 58.684, -30.407
13867.577, 57.228, -38.073
14069.285, 53.651, -46.416
14273.928, 48.655, -17.252
14481.547, 52.058, 12.111
14692.186, 54.917, 3.413
14905.889, 55.816, -9.383
15122.700, 56.214, -23.516
15342.664, 55.531, -40.141
15565.829, 54.787, -54.192
15792.239, 54.439, -67.889
16021.942, 53.814, -85.864
16254.986, 53.579, -103.038
16491.422, 53.551, -118.146
16731.295, 53.843, -138.555
16974.656, 53.893, -152.649
17221.559, 54.976, -172.578
17472.053, 53.453, 163.034
17726.189, 51.028, 160.629
17984.021, 49.363, 160.796
18245.605, 49.757, 176.710
18510.994, 51.339, -179.423
18780.242, 53.830, 171.684
19053.408, 54.617, 158.877
19330.547, 53.761, 147.013
19611.715, 53.490, 147.411
19896.975, 52.826, 132.826
