* Measurement data measured by REW V5.19
* Source: ASIO MOTU M Series, In 1
* Format: 1M Log Swept Sine, 2 sweeps at -3.0 dBFS  With no timing reference
* Dated: 19 Sep, 2020 4:14:56 PM
* REW Settings:
*  C-weighting compensation: Off
*  Target level: 75.0 dB
* Note: ; 
* Measurement: Sep 19 16:14:56
* Smoothing: None
* Frequency Step: 1/48 octave
* Start Frequency: 10.1 Hz
*
* Freq(Hz), SPL(dB), Phase(degrees)
10.145, 53.750, -62.720
10.293, 54.009, -64.285
10.443, 54.272, -66.187
10.595, 54.526, -68.213
10.749, 54.757, -70.438
10.905, 54.943, -72.844
11.064, 55.083, -75.361
11.225, 55.157, -77.820
11.388, 55.167, -80.183
11.554, 55.116, -82.166
11.722, 55.010, -83.756
11.892, 54.888, -84.674
12.065, 54.761, -84.954
12.241, 54.706, -84.596
12.419, 54.726, -83.752
12.599, 54.877, -82.884
12.782, 55.129, -82.192
12.968, 55.463, -82.181
13.157, 55.816, -82.832
13.348, 56.149, -84.298
13.543, 56.403, -86.257
13.740, 56.561, -88.644
13.939, 56.602, -90.994
14.142, 56.539, -93.127
14.348, 56.383, -94.681
14.557, 56.203, -95.457
14.768, 56.032, -95.376
14.983, 55.971, -94.632
15.201, 56.032, -93.687
15.422, 56.240, -92.941
15.646, 56.526, -92.962
15.874, 56.834, -93.739
16.105, 57.106, -95.280
16.339, 57.290, -97.198
16.577, 57.388, -99.188
16.818, 57.407, -100.980
17.063, 57.384, -102.292
17.311, 57.368, -103.129
17.563, 57.390, -103.608
17.818, 57.471, -103.929
18.077, 57.600, -104.376
18.340, 57.747, -105.023
18.607, 57.888, -105.825
18.877, 58.009, -106.676
19.152, 58.115, -107.441
19.431, 58.222, -108.090
19.713, 58.341, -108.713
20.000, 58.465, -109.415
20.291, 58.576, -110.241
20.586, 58.655, -111.133
20.885, 58.694, -111.932
21.189, 58.710, -112.484
21.497, 58.736, -112.787
21.810, 58.794, -113.038
22.127, 58.872, -113.490
22.449, 58.927, -114.231
22.776, 58.920, -115.062
23.107, 58.848, -115.569
23.443, 58.773, -115.393
23.784, 58.797, -114.621
24.130, 58.989, -113.932
24.481, 59.309, -114.192
24.837, 59.630, -115.789
25.198, 59.823, -118.389
25.565, 59.830, -121.189
25.937, 59.687, -123.332
26.314, 59.510, -124.338
26.697, 59.435, -124.442
27.085, 59.514, -124.487
27.479, 59.678, -125.183
27.879, 59.812, -126.535
28.284, 59.857, -128.011
28.696, 59.839, -129.090
29.113, 59.827, -129.623
29.537, 59.874, -129.892
29.966, 59.969, -130.282
30.402, 60.070, -130.946
30.844, 60.139, -131.778
31.293, 60.167, -132.561
31.748, 60.173, -133.124
32.210, 60.192, -133.461
32.678, 60.250, -133.821
33.154, 60.327, -134.533
33.636, 60.349, -135.613
34.125, 60.275, -136.526
34.621, 60.174, -136.630
35.125, 60.207, -136.101
35.636, 60.420, -136.167
36.154, 60.640, -137.782
36.680, 60.656, -140.326
37.214, 60.424, -142.201
37.755, 60.152, -142.309
38.304, 60.088, -141.333
38.861, 60.226, -141.126
39.427, 60.328, -142.123
40.000, 60.263, -143.163
40.582, 60.157, -143.081
41.172, 60.212, -142.395
41.771, 60.404, -142.488
42.379, 60.533, -143.533
42.995, 60.544, -144.355
43.620, 60.600, -144.569
44.255, 60.753, -145.234
44.898, 60.833, -146.722
45.552, 60.768, -147.838
46.214, 60.743, -147.946
46.886, 60.873, -148.192
47.568, 61.015, -149.326
48.260, 61.079, -150.696
48.962, 61.120, -151.992
49.674, 61.131, -153.435
50.397, 61.081, -154.727
51.130, 61.026, -155.745
51.874, 60.955, -156.914
52.628, 60.790, -157.985
53.394, 60.581, -158.437
54.170, 60.385, -158.624
54.958, 60.149, -158.567
55.758, 59.940, -157.800
56.569, 59.861, -156.987
57.391, 59.841, -156.858
58.226, 59.793, -157.401
59.073, 59.627, -158.271
59.932, 59.371, -158.418
60.804, 59.171, -158.174
61.688, 58.878, -157.925
62.586, 58.541, -156.028
63.496, 58.405, -153.202
64.420, 58.419, -149.861
65.357, 58.795, -146.957
66.307, 59.150, -146.949
67.272, 59.170, -146.099
68.250, 59.522, -143.852
69.243, 59.990, -144.477
70.250, 60.086, -145.090
71.272, 60.392, -144.051
72.309, 60.848, -145.871
73.360, 60.817, -148.164
74.427, 60.853, -148.022
75.510, 61.051, -149.039
76.608, 61.123, -149.953
77.723, 61.205, -150.731
78.853, 61.273, -150.677
80.000, 61.490, -151.304
81.164, 61.473, -152.310
82.344, 61.501, -152.367
83.542, 61.486, -153.160
84.757, 61.487, -153.005
85.990, 61.620, -154.489
87.241, 61.509, -155.278
88.510, 61.707, -156.241
89.797, 61.634, -158.229
91.103, 61.567, -158.936
92.428, 61.423, -159.496
93.773, 61.266, -158.648
95.137, 61.343, -157.350
96.520, 61.458, -157.087
97.924, 61.581, -157.153
99.349, 61.673, -157.533
100.794, 61.737, -158.442
102.260, 61.756, -158.704
103.747, 61.837, -159.655
105.256, 61.818, -160.145
106.787, 61.856, -160.547
108.340, 61.857, -161.077
109.916, 61.872, -161.241
111.515, 61.900, -161.886
113.137, 61.899, -162.672
114.783, 61.840, -163.006
116.452, 61.839, -163.174
118.146, 61.824, -163.567
119.865, 61.804, -163.689
121.608, 61.819, -163.983
123.377, 61.757, -164.354
125.171, 61.785, -164.301
126.992, 61.807, -164.222
128.839, 61.877, -162.518
130.713, 61.838, -164.505
132.615, 61.891, -165.057
134.543, 61.853, -165.463
136.500, 61.920, -165.471
138.486, 61.934, -165.853
140.500, 61.934, -166.468
142.544, 61.970, -167.036
144.617, 61.954, -167.608
146.721, 61.962, -167.825
148.855, 61.908, -168.081
151.020, 61.841, -168.567
153.217, 61.796, -168.934
155.445, 61.772, -168.888
157.706, 61.792, -169.190
160.000, 61.755, -169.081
162.327, 61.742, -169.108
164.688, 61.757, -169.410
167.084, 61.777, -169.642
169.514, 61.805, -169.806
171.980, 61.802, -170.251
174.481, 61.795, -170.749
177.019, 61.810, -171.144
179.594, 61.755, -171.410
182.206, 61.688, -172.170
184.856, 61.733, -172.386
187.545, 61.644, -172.901
190.273, 61.582, -172.968
193.041, 61.457, -172.990
195.849, 61.400, -173.085
198.697, 61.367, -172.825
201.587, 61.304, -172.890
204.520, 61.305, -172.539
207.494, 61.278, -172.432
210.512, 61.303, -172.578
213.574, 61.286, -172.436
216.681, 61.295, -172.556
219.833, 61.310, -172.481
223.030, 61.359, -172.759
226.274, 61.364, -173.088
229.565, 61.343, -173.473
232.905, 61.329, -173.586
236.292, 61.318, -173.743
239.729, 61.277, -174.211
243.216, 61.269, -174.323
246.754, 61.249, -174.607
250.343, 61.200, -174.985
253.984, 61.120, -175.378
257.678, 61.081, -175.713
261.426, 61.069, -176.072
265.229, 60.971, -176.429
269.087, 60.893, -176.375
273.001, 60.798, -177.059
276.972, 60.729, -177.337
281.000, 60.608, -177.671
285.088, 60.488, -177.828
289.234, 60.321, -177.835
293.441, 60.160, -178.187
297.710, 59.971, -178.165
302.040, 59.814, -178.078
306.433, 59.566, -177.226
310.890, 59.334, -176.217
315.412, 59.268, -174.900
320.000, 59.175, -173.950
324.655, 59.219, -173.265
329.377, 59.255, -172.517
334.168, 59.004, -173.118
339.028, 58.898, -171.986
343.959, 58.767, -171.746
348.962, 58.565, -170.777
354.038, 58.418, -170.199
359.188, 58.208, -169.219
364.412, 58.061, -167.438
369.713, 57.879, -165.446
375.090, 57.590, -163.357
380.546, 57.459, -161.246
386.081, 57.126, -160.075
391.697, 57.161, -156.868
397.395, 57.479, -150.898
403.175, 57.923, -151.237
409.039, 57.398, -148.372
414.989, 58.073, -142.031
421.025, 58.265, -138.786
427.149, 58.846, -136.988
433.362, 59.181, -134.742
439.665, 59.557, -133.569
446.060, 60.159, -130.968
452.548, 60.644, -130.281
459.131, 61.081, -131.715
465.809, 61.663, -131.105
472.584, 62.173, -132.122
479.458, 62.568, -132.402
486.432, 62.929, -134.504
493.507, 63.265, -135.088
500.686, 63.589, -136.842
507.968, 63.988, -139.327
515.357, 64.307, -141.698
522.853, 64.260, -142.027
530.458, 64.521, -144.463
538.174, 64.390, -145.388
546.002, 64.603, -146.053
553.943, 64.754, -148.505
562.001, 64.803, -149.968
570.175, 64.720, -151.130
578.469, 64.787, -153.411
586.883, 64.831, -154.137
595.419, 64.753, -155.652
604.080, 64.625, -156.171
612.866, 64.621, -157.311
621.780, 64.515, -157.916
630.824, 64.558, -158.769
640.000, 64.529, -158.852
649.309, 64.577, -159.620
658.753, 64.511, -160.389
668.335, 64.471, -161.738
678.056, 64.445, -162.316
687.919, 64.312, -163.287
697.925, 64.243, -163.522
708.076, 64.172, -163.821
718.376, 64.109, -164.349
728.825, 64.009, -164.756
739.426, 63.902, -165.137
750.181, 63.786, -165.348
761.093, 63.665, -165.643
772.163, 63.604, -165.645
783.394, 63.517, -165.583
794.789, 63.357, -165.558
806.349, 63.253, -165.395
818.078, 63.148, -165.036
829.977, 63.058, -165.018
842.050, 62.948, -164.751
854.297, 62.848, -164.276
866.724, 62.716, -163.737
879.330, 62.645, -162.910
892.120, 62.512, -162.382
905.097, 62.429, -160.843
918.262, 62.310, -159.566
931.618, 62.284, -157.692
945.169, 62.390, -155.335
958.917, 62.739, -154.069
972.864, 62.996, -154.418
987.015, 63.093, -155.034
1001.371, 63.092, -155.500
1015.937, 63.033, -155.476
1030.714, 62.974, -154.917
1045.706, 62.932, -153.673
1060.916, 63.016, -152.385
1076.347, 63.249, -151.378
1092.003, 63.469, -151.403
1107.887, 63.590, -152.047
1124.001, 63.630, -152.372
1140.350, 63.647, -152.594
1156.937, 63.674, -152.545
1173.765, 63.684, -152.513
1190.838, 63.696, -152.446
1208.159, 63.712, -152.297
1225.732, 63.712, -152.145
1243.561, 63.687, -151.798
1261.649, 63.689, -151.135
1280.000, 63.754, -150.602
1298.618, 63.798, -150.325
1317.507, 63.823, -149.896
1336.670, 63.860, -149.481
1356.113, 63.900, -149.023
1375.838, 63.943, -148.535
1395.850, 64.004, -147.990
1416.153, 64.063, -147.599
1436.751, 64.111, -147.147
1457.649, 64.168, -146.683
1478.851, 64.220, -146.123
1500.362, 64.282, -145.500
1522.185, 64.355, -144.930
1544.326, 64.435, -144.250
1566.789, 64.541, -143.744
1589.578, 64.631, -143.179
1612.699, 64.728, -142.634
1636.156, 64.833, -142.083
1659.955, 64.961, -141.487
1684.099, 65.084, -141.099
1708.595, 65.195, -140.708
1733.447, 65.302, -140.149
1758.661, 65.422, -139.448
1784.241, 65.560, -138.904
1810.193, 65.711, -138.265
1836.523, 65.884, -137.840
1863.236, 66.065, -137.419
1890.338, 66.246, -137.073
1917.833, 66.426, -136.738
1945.729, 66.608, -136.461
1974.030, 66.796, -136.155
2002.743, 66.994, -135.904
2031.873, 67.241, -135.615
2061.428, 67.486, -136.108
2091.412, 67.636, -136.121
2121.832, 67.886, -136.953
2152.695, 67.429, -138.378
2184.007, 67.905, -133.448
2215.774, 68.356, -133.454
2248.003, 68.708, -133.593
2280.701, 69.044, -133.842
2313.874, 69.379, -134.232
2347.530, 69.726, -134.791
2381.676, 70.075, -135.652
2416.318, 70.394, -136.851
2451.464, 70.663, -138.102
2487.122, 70.917, -139.194
2523.298, 71.190, -140.238
2560.000, 71.472, -141.412
2597.236, 71.767, -142.739
2635.014, 72.067, -144.299
2673.341, 72.355, -146.049
2712.226, 72.636, -148.072
2751.676, 72.897, -150.284
2791.700, 73.131, -152.757
2832.306, 73.336, -155.401
2873.503, 73.497, -158.206
2915.299, 73.618, -161.137
2957.703, 73.686, -164.182
3000.724, 73.686, -167.254
3044.370, 73.615, -170.199
3088.652, 73.478, -172.792
3133.577, 73.277, -174.835
3179.156, 73.057, -175.935
3225.398, 72.915, -175.789
3272.312, 73.043, -174.621
3319.909, 73.608, -174.051
3368.198, 74.521, -177.124
3417.190, 75.085, 174.758
3466.894, 74.887, 166.491
3517.321, 74.390, 160.717
3568.482, 74.056, 156.458
3620.387, 73.561, 150.884
3673.046, 72.864, 146.484
3726.472, 72.121, 143.176
3780.675, 71.351, 140.506
3835.666, 70.539, 138.509
3891.457, 69.711, 137.203
3948.060, 68.862, 136.531
4005.486, 67.989, 136.602
4063.747, 67.127, 137.590
4122.855, 66.313, 139.470
4182.824, 65.591, 142.253
4243.664, 65.146, 144.741
4305.390, 64.314, 144.953
4368.013, 63.162, 150.471
4431.547, 62.764, 158.695
4496.005, 62.665, 164.901
4561.401, 62.848, 169.767
4627.749, 62.799, 172.689
4695.061, 62.588, 176.713
4763.352, 62.394, -178.216
4832.637, 62.242, -172.013
4902.929, 62.183, -163.971
4974.244, 62.511, -153.162
5046.596, 63.676, -141.583
5120.000, 65.629, -133.226
5194.472, 68.104, -130.488
5270.027, 69.665, -132.743
5346.682, 73.588, -135.069
5424.451, 75.556, -159.436
5503.352, 75.005, -179.667
5583.399, 73.726, 168.882
5664.612, 72.512, 163.244
5747.006, 71.482, 160.701
5830.598, 70.619, 161.582
5915.406, 70.826, 165.892
6001.447, 71.920, 158.812
6088.740, 71.032, 146.838
6177.303, 69.541, 144.052
6267.154, 68.595, 143.523
6358.312, 67.531, 144.377
6450.796, 66.656, 147.322
6544.625, 66.005, 151.650
6639.818, 65.716, 156.844
6736.397, 65.696, 161.422
6834.380, 65.892, 165.378
6933.789, 66.213, 168.337
7034.643, 66.674, 170.722
7136.964, 67.259, 171.949
7240.773, 67.946, 171.449
7346.093, 68.481, 169.206
7452.944, 68.923, 167.842
7561.350, 69.726, 164.170
7671.332, 70.135, 157.642
7782.915, 70.239, 151.017
7896.120, 70.212, 144.594
8010.971, 70.042, 136.519
8127.493, 69.354, 129.230
8245.711, 68.541, 120.042
8365.647, 66.353, 114.788
8487.328, 64.906, 117.347
8610.779, 62.147, 128.756
8736.026, 64.500, 150.248
8863.095, 67.186, 141.567
8992.011, 67.841, 126.981
9122.803, 68.103, 111.957
9255.497, 67.047, 93.489
9390.121, 64.710, 76.468
9526.704, 61.865, 65.660
9665.273, 57.835, 54.367
9805.857, 53.116, 51.576
9948.487, 46.776, 40.745
10093.191, 36.156, -131.343
10240.000, 43.571, -141.857
10388.944, 52.066, -136.399
10540.055, 54.741, -157.357
10693.363, 53.576, -149.723
10848.902, 55.706, -147.788
11006.703, 57.304, -149.873
11166.799, 58.350, -152.032
11329.224, 59.024, -155.304
11494.012, 59.626, -157.244
11661.195, 60.040, -158.276
11830.812, 61.072, -157.419
12002.895, 62.118, -165.909
12177.480, 62.141, -172.101
12354.606, 62.234, -177.072
12534.309, 61.977, 177.187
12716.624, 61.412, 175.496
12901.592, 62.084, 176.892
13089.250, 62.578, 170.360
13279.637, 63.856, 159.947
13472.794, 63.802, 136.723
13668.760, 61.019, 109.841
13867.577, 52.168, 83.490
14069.285, 49.950, 167.742
14273.928, 52.279, 179.552
14481.547, 56.714, 172.987
14692.186, 58.306, 151.395
14905.889, 57.907, 118.432
15122.700, 54.411, 78.547
15342.664, 49.246, 35.035
15565.829, 47.793, -30.447
15792.239, 47.902, -55.214
16021.942, 52.006, -64.151
16254.986, 55.751, -79.060
16491.422, 57.704, -100.491
16731.295, 56.738, -109.212
16974.656, 58.674, -107.736
17221.559, 61.713, -119.413
17472.053, 62.183, -153.936
17726.189, 58.524, -174.065
17984.021, 54.892, -174.157
18245.605, 51.643, -154.303
18510.994, 54.198, -129.050
18780.242, 57.296, -135.490
19053.408, 58.454, -152.354
19330.547, 57.423, -169.137
19611.715, 55.864, 178.537
19896.975, 52.342, 170.895
