* Measurement data measured by REW V5.19
* Source: ASIO MOTU M Series, In 1
* Format: 512k Log Swept Sine, 2 sweeps at -10.0 dBFS  With no timing reference
* Dated: 10 Sep, 2020 4:39:49 PM
* REW Settings:
*  C-weighting compensation: Off
*  Target level: 75.0 dB
* Note: ; 
* Measurement: Sep 10 16:39:49
* Smoothing: None
* Frequency Step: 1/48 octave
* Start Frequency: 10.1 Hz
*
* Freq(Hz), SPL(dB), Phase(degrees)
10.145, 60.216, -89.252
10.293, 60.316, -90.319
10.443, 60.417, -91.552
10.595, 60.512, -92.767
10.749, 60.602, -94.032
10.905, 60.679, -95.317
11.064, 60.745, -96.608
11.225, 60.803, -97.843
11.388, 60.854, -99.028
11.554, 60.907, -100.136
11.722, 60.961, -101.175
11.892, 61.026, -102.187
12.065, 61.099, -103.179
12.241, 61.179, -104.226
12.419, 61.262, -105.325
12.599, 61.338, -106.513
12.782, 61.400, -107.752
12.968, 61.439, -109.009
13.157, 61.454, -110.191
13.348, 61.442, -111.236
13.543, 61.421, -112.040
13.740, 61.396, -112.572
13.939, 61.399, -112.845
14.142, 61.435, -112.950
14.348, 61.526, -113.021
14.557, 61.654, -113.271
14.768, 61.814, -113.792
14.983, 61.965, -114.689
15.201, 62.086, -115.860
15.422, 62.154, -117.236
15.646, 62.158, -118.531
15.874, 62.115, -119.585
16.105, 62.041, -120.222
16.339, 61.993, -120.391
16.577, 62.003, -120.304
16.818, 62.094, -120.188
17.063, 62.260, -120.486
17.311, 62.443, -121.415
17.563, 62.596, -122.981
17.818, 62.668, -125.065
18.077, 62.621, -127.298
18.340, 62.461, -129.273
18.607, 62.218, -130.670
18.877, 61.941, -131.270
19.152, 61.700, -131.043
19.431, 61.552, -130.296
19.713, 61.507, -129.421
20.000, 61.546, -128.673
20.291, 61.642, -128.157
20.586, 61.783, -127.875
20.885, 61.971, -127.873
21.189, 62.202, -128.349
21.497, 62.436, -129.551
21.810, 62.600, -131.508
22.127, 62.615, -133.891
22.449, 62.441, -136.015
22.776, 62.112, -136.990
23.107, 61.773, -136.128
23.443, 61.645, -133.687
23.784, 61.860, -131.186
24.130, 62.307, -130.304
24.481, 62.737, -131.519
24.837, 62.949, -134.050
25.198, 62.881, -136.560
25.565, 62.622, -137.807
25.937, 62.375, -137.272
26.314, 62.348, -135.698
26.697, 62.571, -134.652
27.085, 62.881, -135.098
27.479, 63.096, -136.767
27.879, 63.151, -138.786
28.284, 63.090, -140.448
28.696, 62.992, -141.545
29.113, 62.910, -142.248
29.537, 62.852, -142.748
29.966, 62.818, -143.082
30.402, 62.821, -143.298
30.844, 62.861, -143.591
31.293, 62.901, -144.072
31.748, 62.907, -144.532
32.210, 62.899, -144.670
32.678, 62.934, -144.580
33.154, 63.009, -144.732
33.636, 63.033, -145.277
34.125, 62.937, -145.581
34.621, 62.800, -144.835
35.125, 62.806, -143.203
35.636, 63.009, -141.989
36.154, 63.252, -142.110
36.680, 63.370, -143.058
37.214, 63.358, -143.841
37.755, 63.325, -144.142
38.304, 63.329, -144.362
38.861, 63.334, -144.810
39.427, 63.303, -145.291
40.000, 63.250, -145.542
40.582, 63.203, -145.430
41.172, 63.212, -144.884
41.771, 63.342, -144.263
42.379, 63.560, -144.359
42.995, 63.712, -145.189
43.620, 63.765, -145.693
44.255, 63.890, -145.657
44.898, 64.123, -146.354
45.552, 64.211, -148.279
46.214, 64.037, -149.556
46.886, 63.886, -148.932
47.568, 63.997, -148.209
48.260, 64.128, -148.925
48.962, 64.086, -149.740
49.674, 64.046, -149.672
50.397, 64.110, -149.765
51.130, 64.135, -150.359
51.874, 64.103, -150.667
52.628, 64.101, -150.699
53.394, 64.118, -150.783
54.170, 64.142, -150.931
54.958, 64.136, -151.236
55.758, 64.077, -151.071
56.569, 64.135, -150.373
57.391, 64.288, -150.554
58.226, 64.340, -151.107
59.073, 64.430, -151.297
59.932, 64.527, -152.252
60.804, 64.489, -152.790
61.688, 64.580, -152.734
62.586, 64.638, -153.625
63.496, 64.581, -153.304
64.420, 64.799, -152.710
65.357, 64.997, -153.983
66.307, 64.968, -155.246
67.272, 64.888, -155.552
68.250, 64.924, -155.391
69.243, 65.042, -155.954
70.250, 65.091, -157.362
71.272, 64.907, -158.369
72.309, 64.902, -157.327
73.360, 65.050, -158.808
74.427, 64.748, -158.828
75.510, 64.988, -157.546
76.608, 65.039, -159.623
77.723, 64.915, -159.583
78.853, 64.959, -160.464
80.000, 64.739, -160.723
81.164, 64.816, -159.395
82.344, 64.977, -160.354
83.542, 64.914, -160.755
84.757, 64.940, -161.006
85.990, 64.909, -161.165
87.241, 64.966, -161.481
88.510, 64.851, -162.104
89.797, 64.940, -161.429
91.103, 64.822, -163.007
92.428, 64.831, -161.071
93.773, 64.957, -162.408
95.137, 64.986, -162.544
96.520, 64.946, -162.413
97.924, 65.155, -162.650
99.349, 65.159, -162.223
100.794, 65.190, -162.530
102.260, 65.216, -161.520
103.747, 65.238, -163.542
105.256, 64.891, -162.612
106.787, 65.147, -165.127
108.340, 64.755, -164.202
109.916, 65.012, -164.064
111.515, 65.025, -164.179
113.137, 65.073, -163.486
114.783, 64.956, -164.176
116.452, 65.001, -164.284
118.146, 64.935, -164.601
119.865, 65.129, -165.145
121.608, 65.051, -164.987
123.377, 65.068, -165.191
125.171, 65.017, -165.037
126.992, 65.096, -165.126
128.839, 65.198, -164.196
130.713, 65.043, -165.616
132.615, 65.134, -165.036
134.543, 65.039, -164.789
136.500, 65.138, -164.512
138.486, 65.059, -166.718
140.500, 65.149, -165.973
142.544, 65.159, -166.153
144.617, 65.186, -165.548
146.721, 65.287, -165.996
148.855, 65.257, -165.677
151.020, 65.249, -165.885
153.217, 65.215, -166.031
155.445, 65.220, -166.535
157.706, 65.290, -166.658
160.000, 65.313, -165.745
162.327, 65.418, -165.791
164.688, 65.306, -166.188
167.084, 65.303, -166.606
169.514, 65.373, -166.581
171.980, 65.404, -166.828
174.481, 65.461, -166.469
177.019, 65.368, -166.817
179.594, 65.437, -166.774
182.206, 65.440, -166.734
184.856, 65.412, -167.710
187.545, 65.443, -166.960
190.273, 65.438, -167.406
193.041, 65.535, -167.390
195.849, 65.491, -167.530
198.697, 65.514, -167.356
201.587, 65.536, -166.872
204.520, 65.432, -167.383
207.494, 65.739, -167.884
210.512, 65.714, -167.784
213.574, 65.793, -168.339
216.681, 65.647, -167.503
219.833, 65.810, -167.234
223.030, 65.963, -168.591
226.274, 65.847, -168.819
229.565, 65.721, -168.159
232.905, 65.726, -166.953
236.292, 65.871, -168.508
239.729, 65.811, -167.135
243.216, 65.852, -168.737
246.754, 65.869, -168.423
250.343, 65.980, -168.317
253.984, 66.008, -168.834
257.678, 65.940, -168.739
261.426, 66.042, -169.116
265.229, 66.071, -169.474
269.087, 66.144, -169.285
273.001, 66.025, -169.244
276.972, 66.217, -169.442
281.000, 66.177, -170.319
285.088, 66.188, -170.024
289.234, 66.251, -169.939
293.441, 66.335, -170.055
297.710, 66.194, -169.871
302.040, 66.300, -171.036
306.433, 66.297, -171.369
310.890, 66.367, -171.795
315.412, 66.311, -172.333
320.000, 66.421, -172.489
324.655, 66.509, -171.524
329.377, 66.448, -174.048
334.168, 66.406, -173.467
339.028, 66.606, -174.330
343.959, 66.391, -174.317
348.962, 66.439, -174.099
354.038, 66.435, -175.120
359.188, 66.429, -175.501
364.412, 66.330, -176.888
369.713, 66.234, -174.414
375.090, 66.170, -176.881
380.546, 66.330, -177.193
386.081, 66.137, -177.209
391.697, 66.043, -177.115
397.395, 66.069, -177.613
403.175, 65.949, -177.191
409.039, 65.896, -176.843
414.989, 65.681, -176.281
421.025, 65.689, -176.595
427.149, 65.694, -176.582
433.362, 65.514, -174.777
439.665, 65.541, -176.056
446.060, 65.642, -174.317
452.548, 65.402, -174.250
459.131, 65.557, -173.624
465.809, 65.497, -172.515
472.584, 65.372, -173.006
479.458, 65.567, -169.955
486.432, 65.563, -171.490
493.507, 65.572, -168.827
500.686, 65.944, -168.794
507.968, 66.003, -168.798
515.357, 65.922, -168.215
522.853, 66.231, -167.593
530.458, 66.391, -168.196
538.174, 66.457, -167.913
546.002, 66.623, -167.668
553.943, 66.933, -168.943
562.001, 66.789, -169.443
570.175, 67.158, -167.339
578.469, 67.101, -168.704
586.883, 67.059, -169.456
595.419, 67.459, -170.388
604.080, 67.435, -170.032
612.866, 67.627, -170.145
621.780, 67.809, -172.055
630.824, 67.595, -170.955
640.000, 68.112, -172.715
649.309, 68.227, -174.055
658.753, 68.274, -174.302
668.335, 68.363, -176.086
678.056, 68.418, -177.203
687.919, 68.525, -178.740
697.925, 68.505, 179.769
708.076, 68.401, 178.042
718.376, 68.453, 177.260
728.825, 68.269, 176.331
739.426, 68.275, 175.195
750.181, 68.251, 174.793
761.093, 68.209, 173.367
772.163, 68.145, 172.123
783.394, 68.163, 170.388
794.789, 67.567, 172.292
806.349, 67.910, 169.537
818.078, 67.447, 169.271
829.977, 67.347, 169.928
842.050, 67.300, 170.352
854.297, 67.309, 171.006
866.724, 67.255, 171.484
879.330, 67.285, 172.081
892.120, 67.468, 171.545
905.097, 67.669, 170.968
918.262, 67.774, 170.449
931.618, 67.738, 168.818
945.169, 67.834, 167.315
958.917, 67.854, 164.509
972.864, 67.627, 163.765
987.015, 67.474, 162.073
1001.371, 67.372, 162.103
1015.937, 67.075, 161.284
1030.714, 67.239, 160.578
1045.706, 66.934, 159.884
1060.916, 66.873, 158.206
1076.347, 66.602, 158.320
1092.003, 66.443, 157.982
1107.887, 66.362, 157.111
1124.001, 66.223, 156.130
1140.350, 65.884, 155.557
1156.937, 65.582, 155.772
1173.765, 65.410, 155.860
1190.838, 65.141, 155.537
1208.159, 64.909, 156.157
1225.732, 64.707, 155.187
1243.561, 64.476, 157.023
1261.649, 64.276, 157.121
1280.000, 64.159, 158.744
1298.618, 63.843, 159.474
1317.507, 63.669, 161.392
1336.670, 63.659, 162.668
1356.113, 63.404, 163.019
1375.838, 63.471, 166.796
1395.850, 63.340, 168.590
1416.153, 63.865, 169.618
1436.751, 63.931, 169.727
1457.649, 64.135, 167.982
1478.851, 64.202, 168.110
1500.362, 64.216, 166.295
1522.185, 64.048, 166.383
1544.326, 63.653, 165.759
1566.789, 63.667, 165.456
1589.578, 63.444, 167.230
1612.699, 63.259, 167.187
1636.156, 63.204, 169.623
1659.955, 62.966, 170.208
1684.099, 63.011, 171.285
1708.595, 62.945, 172.108
1733.447, 62.908, 173.196
1758.661, 62.793, 174.597
1784.241, 62.829, 176.976
1810.193, 62.882, 177.847
1836.523, 63.066, 179.617
1863.236, 62.877, -179.302
1890.338, 63.046, -177.205
1917.833, 63.341, -175.778
1945.729, 63.511, -174.884
1974.030, 63.566, -172.740
2002.743, 64.026, -171.608
2031.873, 64.708, -169.633
2061.428, 65.263, -171.686
2091.412, 65.632, -173.364
2121.832, 65.785, -176.779
2152.695, 65.910, -177.774
2184.007, 66.101, -179.582
2215.774, 66.216, 178.729
2248.003, 66.224, 176.974
2280.701, 66.166, 175.679
2313.874, 66.216, 173.250
2347.530, 66.018, 172.195
2381.676, 65.899, 170.596
2416.318, 65.802, 169.466
2451.464, 65.693, 168.821
2487.122, 65.476, 168.027
2523.298, 65.385, 167.240
2560.000, 65.232, 167.322
2597.236, 65.048, 167.493
2635.014, 65.102, 168.728
2673.341, 65.448, 168.111
2712.226, 65.495, 165.642
2751.676, 65.333, 163.993
2791.700, 65.089, 162.589
2832.306, 64.969, 161.539
2873.503, 64.741, 160.658
2915.299, 64.568, 159.594
2957.703, 64.387, 159.237
3000.724, 64.196, 158.509
3044.370, 64.000, 157.913
3088.652, 63.795, 156.931
3133.577, 63.569, 156.476
3179.156, 63.285, 155.376
3225.398, 63.031, 154.119
3272.312, 62.584, 153.137
3319.909, 62.088, 154.771
3368.198, 62.064, 155.078
3417.190, 61.888, 153.734
3466.894, 61.581, 153.403
3517.321, 61.292, 151.701
3568.482, 61.084, 148.252
3620.387, 60.649, 143.325
3673.046, 60.212, 136.814
3726.472, 59.360, 125.201
3780.675, 58.879, 105.152
3835.666, 58.906, 68.803
3891.457, 61.673, 19.140
3948.060, 65.658, -33.682
4005.486, 66.849, -77.419
4063.747, 66.148, -98.094
4122.855, 66.656, -103.250
4182.824, 67.893, -116.347
4243.664, 67.686, -126.899
4305.390, 67.603, -132.106
4368.013, 67.942, -134.807
4431.547, 68.349, -140.134
4496.005, 68.293, -143.615
4561.401, 68.558, -146.659
4627.749, 68.854, -150.162
4695.061, 68.762, -156.979
4763.352, 68.013, -156.222
4832.637, 68.216, -155.676
4902.929, 68.419, -155.940
4974.244, 68.683, -156.448
5046.596, 69.027, -156.649
5120.000, 69.532, -157.291
5194.472, 70.118, -158.773
5270.027, 70.711, -161.419
5346.682, 71.373, -166.286
5424.451, 71.639, -171.857
5503.352, 71.854, -176.507
5583.399, 71.954, 177.414
5664.612, 71.864, 171.275
5747.006, 71.571, 165.665
5830.598, 71.057, 161.351
5915.406, 70.591, 157.377
6001.447, 70.259, 156.977
6088.740, 70.101, 153.130
6177.303, 69.546, 149.780
6267.154, 69.166, 148.059
6358.312, 68.625, 145.965
6450.796, 68.174, 144.943
6544.625, 67.731, 143.701
6639.818, 67.242, 144.347
6736.397, 67.102, 143.507
6834.380, 66.630, 143.615
6933.789, 66.263, 144.121
7034.643, 66.253, 145.769
7136.964, 66.188, 145.716
7240.773, 66.197, 145.503
7346.093, 66.128, 146.500
7452.944, 66.986, 147.643
7561.350, 67.787, 143.265
7671.332, 68.421, 134.484
7782.915, 68.771, 120.206
7896.120, 67.517, 102.775
8010.971, 64.458, 91.432
8127.493, 62.059, 92.429
8245.711, 59.634, 98.210
8365.647, 57.881, 103.682
8487.328, 56.314, 111.083
8610.779, 53.678, 116.047
8736.026, 55.125, 154.258
8863.095, 55.366, 146.680
8992.011, 55.316, 154.276
9122.803, 55.477, 168.063
9255.497, 57.280, 175.959
9390.121, 62.892, 167.666
9526.704, 61.177, 116.273
9665.273, 53.458, 112.866
9805.857, 50.692, 164.132
9948.487, 55.397, 172.084
10093.191, 48.234, 157.816
10240.000, 51.364, -124.039
10388.944, 57.660, -126.298
10540.055, 61.690, -132.108
10693.363, 64.183, -148.746
10848.902, 65.544, -165.848
11006.703, 65.720, 176.837
11166.799, 64.863, 163.852
11329.224, 63.711, 154.737
11494.012, 62.428, 152.582
11661.195, 61.834, 153.812
11830.812, 62.144, 153.348
12002.895, 62.709, 145.419
12177.480, 62.185, 136.404
12354.606, 61.164, 127.028
12534.309, 60.251, 118.832
12716.624, 59.042, 110.425
12901.592, 56.526, 103.194
13089.250, 56.453, 102.157
13279.637, 55.934, 84.247
13472.794, 53.787, 50.260
13668.760, 50.710, 29.083
13867.577, 50.926, -5.194
14069.285, 52.377, -36.912
14273.928, 51.342, -64.756
14481.547, 53.467, -54.463
14692.186, 54.653, -58.451
14905.889, 59.105, -47.427
15122.700, 64.211, -69.312
15342.664, 65.164, -108.571
15565.829, 61.696, -117.466
15792.239, 62.305, -103.610
16021.942, 65.041, -106.466
16254.986, 67.301, -118.024
16491.422, 67.974, -137.720
16731.295, 67.651, -154.115
16974.656, 66.630, -164.961
17221.559, 65.989, -169.752
17472.053, 66.087, -176.999
17726.189, 65.502, 169.970
17984.021, 63.792, 160.283
18245.605, 61.861, 158.366
18510.994, 60.636, 160.056
18780.242, 59.714, 162.999
19053.408, 59.715, 169.096
19330.547, 60.765, 165.791
19611.715, 61.035, 154.867
19896.975, 60.250, 141.394
