* Measurement data measured by REW V5.19
* Source: ASIO MOTU M Series, In 1
* Format: 1M Log Swept Sine, 2 sweeps at -3.0 dBFS  With no timing reference
* Dated: 19 Sep, 2020 4:43:21 PM
* REW Settings:
*  C-weighting compensation: Off
*  Target level: 75.0 dB
* Note: ; 
* Measurement: Sep 19 16:43:21
* Smoothing: None
* Frequency Step: 1/48 octave
* Start Frequency: 10.1 Hz
*
* Freq(Hz), SPL(dB), Phase(degrees)
10.145, 46.293, -28.230
10.293, 46.613, -24.417
10.443, 46.953, -20.921
10.595, 47.608, -18.880
10.749, 48.353, -17.899
10.905, 49.061, -18.355
11.064, 49.739, -19.973
11.225, 50.290, -22.326
11.388, 50.726, -25.410
11.554, 51.023, -28.695
11.722, 51.181, -32.189
11.892, 51.210, -35.427
12.065, 51.114, -38.378
12.241, 50.930, -40.611
12.419, 50.680, -42.111
12.599, 50.443, -42.596
12.782, 50.256, -42.294
12.968, 50.211, -41.358
13.157, 50.299, -40.398
13.348, 50.549, -39.837
13.543, 50.858, -40.092
13.740, 51.203, -41.289
13.939, 51.477, -43.241
14.142, 51.668, -45.720
14.348, 51.730, -48.377
14.557, 51.681, -50.707
14.768, 51.529, -52.468
14.983, 51.346, -53.150
15.201, 51.211, -52.828
15.422, 51.202, -51.493
15.646, 51.403, -49.996
15.874, 51.775, -48.877
16.105, 52.280, -48.722
16.339, 52.787, -49.694
16.577, 53.233, -51.508
16.818, 53.569, -53.880
17.063, 53.771, -56.288
17.311, 53.867, -58.319
17.563, 53.896, -59.739
17.818, 53.911, -60.405
18.077, 53.985, -60.439
18.340, 54.139, -60.360
18.607, 54.358, -60.402
18.877, 54.603, -60.832
19.152, 54.817, -61.647
19.431, 54.961, -62.548
19.713, 55.041, -63.172
20.000, 55.100, -63.270
20.291, 55.199, -62.819
20.586, 55.393, -62.091
20.885, 55.698, -61.595
21.189, 56.071, -61.793
21.497, 56.428, -62.800
21.810, 56.705, -64.356
22.127, 56.876, -66.004
22.449, 56.966, -67.281
22.776, 57.044, -67.947
23.107, 57.186, -68.156
23.443, 57.429, -68.408
23.784, 57.735, -69.217
24.130, 58.020, -70.729
24.481, 58.209, -72.624
24.837, 58.284, -74.306
25.198, 58.300, -75.251
25.565, 58.361, -75.386
25.937, 58.541, -75.221
26.314, 58.822, -75.476
26.697, 59.105, -76.476
27.085, 59.296, -77.909
27.479, 59.374, -79.121
27.879, 59.404, -79.619
28.284, 59.482, -79.448
28.696, 59.658, -79.116
29.113, 59.904, -79.141
29.537, 60.156, -79.662
29.966, 60.377, -80.526
30.402, 60.556, -81.577
30.844, 60.690, -82.711
31.293, 60.779, -83.759
31.748, 60.851, -84.539
32.210, 60.958, -85.102
32.678, 61.120, -85.859
33.154, 61.284, -87.128
33.636, 61.370, -88.659
34.125, 61.377, -89.798
34.621, 61.397, -90.208
35.125, 61.520, -90.298
35.636, 61.719, -90.680
36.154, 61.912, -91.413
36.680, 62.073, -92.142
37.214, 62.222, -92.723
37.755, 62.352, -93.177
38.304, 62.454, -93.226
38.861, 62.609, -92.582
39.427, 62.920, -91.885
40.000, 63.332, -92.275
40.582, 63.639, -93.909
41.172, 63.734, -95.680
41.771, 63.703, -96.444
42.379, 63.741, -96.085
42.995, 63.955, -95.632
43.620, 64.266, -96.007
44.255, 64.549, -97.136
44.898, 64.778, -98.384
45.552, 65.029, -99.524
46.214, 65.334, -101.036
46.886, 65.609, -103.287
47.568, 65.759, -105.846
48.260, 65.794, -107.990
48.962, 65.796, -109.543
49.674, 65.790, -110.788
50.397, 65.755, -111.650
51.130, 65.752, -111.978
51.874, 65.824, -112.371
52.628, 65.869, -113.094
53.394, 65.875, -113.352
54.170, 65.976, -113.162
54.958, 66.163, -113.232
55.758, 66.403, -113.418
56.569, 66.732, -114.186
57.391, 66.987, -115.887
58.226, 67.118, -117.184
59.073, 67.325, -118.027
59.932, 67.564, -119.609
60.804, 67.715, -121.465
61.688, 67.841, -123.384
62.586, 67.899, -125.462
63.496, 67.937, -127.145
64.420, 67.999, -129.073
65.357, 67.971, -130.825
66.307, 68.004, -131.991
67.272, 68.030, -133.664
68.250, 67.969, -134.630
69.243, 68.010, -135.296
70.250, 68.049, -136.154
71.272, 68.134, -137.235
72.309, 68.125, -138.717
73.360, 68.141, -139.639
74.427, 68.149, -141.259
75.510, 68.073, -142.156
76.608, 68.087, -143.161
77.723, 68.005, -143.938
78.853, 68.046, -144.475
80.000, 67.989, -145.648
81.164, 67.989, -146.000
82.344, 67.984, -147.530
83.542, 67.885, -147.923
84.757, 67.952, -148.865
85.990, 67.882, -149.646
87.241, 67.935, -150.215
88.510, 67.914, -151.376
89.797, 67.810, -151.987
91.103, 67.805, -152.133
92.428, 67.797, -153.042
93.773, 67.738, -153.574
95.137, 67.726, -154.077
96.520, 67.712, -154.888
97.924, 67.648, -155.525
99.349, 67.599, -156.076
100.794, 67.575, -156.480
102.260, 67.557, -157.239
103.747, 67.503, -157.760
105.256, 67.478, -158.156
106.787, 67.446, -158.607
108.340, 67.413, -159.074
109.916, 67.351, -159.584
111.515, 67.259, -160.068
113.137, 67.213, -160.083
114.783, 67.224, -160.406
116.452, 67.170, -160.578
118.146, 67.183, -160.645
119.865, 67.179, -160.697
121.608, 67.162, -160.909
123.377, 67.165, -161.440
125.171, 67.098, -161.877
126.992, 67.106, -162.317
128.839, 67.097, -162.577
130.713, 67.029, -163.020
132.615, 67.075, -163.086
134.543, 67.052, -164.255
136.500, 66.950, -164.763
138.486, 66.876, -164.189
140.500, 66.911, -164.421
142.544, 66.919, -164.467
144.617, 66.860, -165.100
146.721, 66.889, -165.206
148.855, 66.854, -165.563
151.020, 66.846, -165.755
153.217, 66.874, -166.064
155.445, 66.786, -166.201
157.706, 66.779, -165.913
160.000, 66.813, -167.023
162.327, 66.780, -168.026
164.688, 66.735, -167.442
167.084, 66.599, -166.869
169.514, 66.667, -168.021
171.980, 66.686, -167.452
174.481, 66.702, -168.285
177.019, 66.512, -168.050
179.594, 66.613, -168.946
182.206, 66.648, -169.542
184.856, 66.494, -168.921
187.545, 66.427, -169.497
190.273, 66.422, -169.644
193.041, 66.357, -169.648
195.849, 66.275, -169.817
198.697, 66.250, -169.495
201.587, 66.215, -169.353
204.520, 66.175, -169.333
207.494, 66.142, -169.119
210.512, 66.138, -168.864
213.574, 66.157, -168.967
216.681, 66.190, -169.042
219.833, 66.192, -168.966
223.030, 66.153, -168.962
226.274, 66.191, -169.031
229.565, 66.244, -169.110
232.905, 66.133, -169.272
236.292, 66.025, -170.023
239.729, 66.080, -170.472
243.216, 66.007, -169.598
246.754, 65.931, -170.109
250.343, 65.915, -169.684
253.984, 65.856, -169.571
257.678, 65.855, -169.483
261.426, 65.760, -169.851
265.229, 65.675, -169.097
269.087, 65.651, -169.237
273.001, 65.603, -168.566
276.972, 65.597, -168.410
281.000, 65.634, -167.630
285.088, 65.615, -167.697
289.234, 65.538, -167.082
293.441, 65.509, -166.328
297.710, 65.573, -166.058
302.040, 65.522, -165.552
306.433, 65.533, -165.272
310.890, 65.566, -164.181
315.412, 65.574, -163.534
320.000, 65.621, -163.080
324.655, 65.745, -162.331
329.377, 65.790, -161.816
334.168, 66.004, -160.584
339.028, 65.988, -159.905
343.959, 66.094, -158.256
348.962, 66.576, -157.017
354.038, 67.048, -159.825
359.188, 67.439, -163.216
364.412, 67.528, -165.770
369.713, 67.440, -168.146
375.090, 67.402, -169.494
380.546, 67.382, -170.052
386.081, 67.361, -169.956
391.697, 67.232, -169.753
397.395, 67.179, -169.622
403.175, 67.130, -169.196
409.039, 67.055, -168.588
414.989, 66.992, -168.400
421.025, 66.930, -168.470
427.149, 67.076, -167.820
433.362, 66.982, -168.236
439.665, 67.198, -168.062
446.060, 67.231, -168.220
452.548, 67.318, -168.059
459.131, 67.316, -167.912
465.809, 67.433, -167.917
472.584, 67.467, -168.998
479.458, 67.547, -168.340
486.432, 67.476, -169.430
493.507, 67.515, -169.417
500.686, 67.539, -168.978
507.968, 67.485, -169.331
515.357, 67.344, -170.384
522.853, 67.474, -169.946
530.458, 67.557, -170.446
538.174, 67.436, -170.010
546.002, 67.476, -169.750
553.943, 67.450, -169.944
562.001, 67.358, -170.098
570.175, 67.372, -169.509
578.469, 67.451, -169.289
586.883, 67.372, -168.611
595.419, 67.490, -168.940
604.080, 67.509, -168.735
612.866, 67.604, -168.824
621.780, 67.662, -167.999
630.824, 67.803, -167.830
640.000, 67.904, -167.890
649.309, 67.931, -167.477
658.753, 67.982, -167.960
668.335, 68.120, -168.143
678.056, 68.270, -168.731
687.919, 68.409, -169.434
697.925, 68.511, -170.347
708.076, 68.495, -171.291
718.376, 68.503, -172.749
728.825, 68.451, -173.447
739.426, 68.369, -174.010
750.181, 68.286, -174.538
761.093, 68.179, -174.339
772.163, 68.191, -174.058
783.394, 68.211, -174.105
794.789, 68.254, -174.288
806.349, 68.290, -175.095
818.078, 68.252, -175.427
829.977, 68.210, -175.662
842.050, 68.230, -176.169
854.297, 68.190, -176.411
866.724, 68.076, -176.860
879.330, 67.992, -176.978
892.120, 67.984, -176.834
905.097, 67.946, -176.630
918.262, 67.916, -176.662
931.618, 67.933, -176.542
945.169, 67.951, -176.822
958.917, 67.847, -176.715
972.864, 67.823, -176.188
987.015, 67.813, -176.309
1001.371, 67.844, -176.306
1015.937, 67.887, -176.518
1030.714, 67.830, -176.342
1045.706, 67.845, -176.312
1060.916, 67.855, -176.218
1076.347, 67.939, -176.415
1092.003, 67.865, -176.583
1107.887, 67.780, -176.357
1124.001, 67.831, -175.712
1140.350, 67.917, -175.348
1156.937, 68.081, -174.883
1173.765, 68.234, -175.717
1190.838, 68.266, -176.402
1208.159, 68.332, -177.235
1225.732, 68.360, -178.170
1243.561, 68.253, -178.680
1261.649, 68.252, -179.083
1280.000, 68.232, -179.319
1298.618, 68.273, -179.708
1317.507, 68.302, 179.287
1336.670, 68.186, 178.241
1356.113, 68.035, 177.836
1375.838, 67.991, 177.643
1395.850, 67.896, 177.183
1416.153, 67.810, 177.361
1436.751, 67.710, 176.772
1457.649, 67.569, 177.322
1478.851, 67.481, 176.879
1500.362, 67.273, 176.727
1522.185, 67.130, 177.792
1544.326, 67.071, 177.911
1566.789, 66.863, 179.292
1589.578, 66.940, 179.337
1612.699, 66.790, -179.869
1636.156, 66.769, -179.578
1659.955, 66.607, -178.510
1684.099, 66.613, -177.900
1708.595, 66.350, -175.235
1733.447, 66.617, -173.648
1758.661, 66.502, -173.225
1784.241, 66.720, -171.078
1810.193, 66.807, -170.351
1836.523, 66.915, -169.388
1863.236, 67.116, -167.030
1890.338, 67.368, -167.414
1917.833, 67.629, -166.702
1945.729, 67.692, -167.078
1974.030, 67.500, -165.824
2002.743, 67.625, -162.977
2031.873, 68.048, -160.769
2061.428, 68.630, -159.595
2091.412, 69.080, -159.811
2121.832, 69.614, -160.127
2152.695, 70.046, -160.940
2184.007, 70.353, -162.480
2215.774, 70.943, -163.790
2248.003, 71.242, -166.213
2280.701, 71.526, -169.874
2313.874, 71.520, -171.681
2347.530, 71.703, -173.619
2381.676, 71.861, -175.077
2416.318, 72.108, -177.460
2451.464, 72.265, 179.511
2487.122, 72.321, 176.017
2523.298, 72.210, 173.058
2560.000, 72.042, 170.631
2597.236, 71.876, 168.461
2635.014, 71.677, 166.726
2673.341, 71.491, 165.235
2712.226, 71.227, 164.564
2751.676, 71.063, 164.483
2791.700, 71.046, 164.723
2832.306, 71.154, 164.699
2873.503, 71.396, 163.490
2915.299, 71.493, 160.495
2957.703, 71.324, 158.682
3000.724, 71.351, 157.211
3044.370, 71.418, 154.596
3088.652, 71.278, 151.745
3133.577, 71.040, 148.905
3179.156, 70.705, 146.810
3225.398, 70.456, 145.458
3272.312, 70.201, 144.033
3319.909, 69.991, 142.795
3368.198, 69.806, 141.344
3417.190, 69.704, 138.904
3466.894, 69.495, 134.208
3517.321, 68.464, 129.652
3568.482, 67.338, 130.252
3620.387, 66.458, 132.570
3673.046, 65.775, 136.253
3726.472, 65.556, 139.947
3780.675, 65.363, 142.947
3835.666, 65.241, 146.273
3891.457, 65.365, 148.950
3948.060, 65.790, 148.600
4005.486, 65.594, 146.224
4063.747, 65.096, 147.083
4122.855, 64.856, 149.047
4182.824, 64.655, 150.377
4243.664, 64.353, 153.477
4305.390, 64.384, 156.835
4368.013, 64.706, 159.458
4431.547, 65.069, 158.474
4496.005, 65.120, 156.741
4561.401, 64.886, 155.084
4627.749, 64.315, 157.068
4695.061, 64.072, 159.716
4763.352, 64.153, 163.042
4832.637, 64.266, 165.580
4902.929, 64.429, 167.125
4974.244, 64.632, 169.597
5046.596, 64.925, 171.405
5120.000, 65.253, 172.914
5194.472, 65.608, 173.967
5270.027, 66.056, 174.585
5346.682, 66.708, 174.871
5424.451, 67.210, 174.026
5503.352, 67.660, 172.202
5583.399, 68.172, 168.795
5664.612, 68.417, 165.532
5747.006, 68.516, 161.774
5830.598, 68.543, 157.704
5915.406, 68.411, 153.865
6001.447, 68.161, 151.552
6088.740, 67.909, 150.477
6177.303, 67.831, 148.759
6267.154, 67.650, 147.266
6358.312, 67.643, 146.345
6450.796, 67.641, 144.194
6544.625, 67.577, 141.843
6639.818, 67.444, 139.488
6736.397, 67.264, 136.398
6834.380, 67.119, 133.216
6933.789, 66.723, 129.124
7034.643, 66.070, 126.689
7136.964, 65.550, 125.232
7240.773, 64.890, 124.166
7346.093, 64.389, 124.779
7452.944, 64.038, 124.368
7561.350, 63.502, 124.292
7671.332, 63.123, 125.387
7782.915, 62.843, 127.118
7896.120, 62.863, 128.989
8010.971, 63.375, 129.563
8127.493, 64.201, 126.549
8245.711, 65.009, 117.457
8365.647, 65.124, 100.958
8487.328, 63.753, 82.236
8610.779, 61.189, 68.333
8736.026, 58.438, 56.882
8863.095, 54.851, 42.694
8992.011, 50.718, 21.231
9122.803, 46.870, -29.032
9255.497, 49.078, -86.788
9390.121, 53.159, -112.753
9526.704, 56.078, -129.996
9665.273, 58.114, -145.783
9805.857, 58.719, -160.970
9948.487, 58.505, -172.169
10093.191, 57.687, -179.239
10240.000, 56.834, 175.850
10388.944, 55.213, 174.220
10540.055, 53.157, 179.202
10693.363, 51.046, -164.328
10848.902, 50.847, -134.499
11006.703, 54.713, -108.304
11166.799, 59.866, -104.368
11329.224, 63.875, -121.750
11494.012, 64.946, -146.481
11661.195, 64.019, -162.933
11830.812, 62.549, -170.402
12002.895, 61.250, -169.935
12177.480, 60.608, -164.864
12354.606, 61.061, -158.663
12534.309, 62.269, -156.148
12716.624, 63.754, -160.035
12901.592, 64.762, -169.573
13089.250, 65.269, 178.542
13279.637, 65.268, 164.925
13472.794, 64.709, 149.580
13668.760, 63.767, 131.758
13867.577, 62.259, 107.935
14069.285, 59.812, 75.469
14273.928, 57.958, 28.761
14481.547, 59.265, -21.445
14692.186, 61.744, -60.988
14905.889, 63.168, -89.337
15122.700, 63.604, -107.272
15342.664, 63.742, -116.924
15565.829, 64.311, -122.840
15792.239, 65.027, -128.881
16021.942, 65.437, -136.324
16254.986, 65.618, -141.571
16491.422, 66.252, -145.173
16731.295, 67.518, -153.134
16974.656, 68.022, -168.611
17221.559, 67.542, 175.647
17472.053, 65.687, 160.089
17726.189, 62.741, 154.859
17984.021, 60.204, 162.394
18245.605, 59.649, 176.171
18510.994, 60.256, 179.911
18780.242, 60.262, -176.769
19053.408, 61.041, -175.728
19330.547, 61.513, -178.287
19611.715, 61.796, 178.550
19896.975, 62.262, 175.263
