* Measurement data measured by REW V5.19
* Source: In 1-2 (MOTU M Series), no input selected, L, volume: no control
* Format: 1M Log Swept Sine, 1 sweep at -3.0 dBFS  With no timing reference
* Dated: 23 Sep, 2020 5:10:42 PM
* REW Settings:
*  C-weighting compensation: Off
*  Target level: 75.0 dB
* Note: ; 
* Measurement: Sep 23 17:10:42
* Smoothing: None
* Frequency Step: 1/48 octave
* Start Frequency: 10.0 Hz
*
* Freq(Hz), SPL(dB), Phase(degrees)
10.145, 72.027, 58.727
10.293, 72.051, 57.686
10.443, 72.070, 56.733
10.595, 72.088, 55.796
10.749, 72.103, 54.884
10.905, 72.117, 53.996
11.064, 72.131, 53.136
11.225, 72.146, 52.306
11.388, 72.163, 51.497
11.554, 72.183, 50.709
11.722, 72.205, 49.930
11.892, 72.231, 49.152
12.065, 72.258, 48.371
12.241, 72.287, 47.577
12.419, 72.316, 46.773
12.599, 72.343, 45.959
12.782, 72.369, 45.137
12.968, 72.393, 44.317
13.157, 72.414, 43.496
13.348, 72.435, 42.679
13.543, 72.453, 41.862
13.740, 72.470, 41.040
13.939, 72.485, 40.211
14.142, 72.496, 39.369
14.348, 72.501, 38.526
14.557, 72.498, 37.682
14.768, 72.488, 36.870
14.983, 72.471, 36.097
15.201, 72.451, 35.391
15.422, 72.431, 34.746
15.646, 72.416, 34.166
15.874, 72.410, 33.603
16.105, 72.414, 33.037
16.339, 72.424, 32.414
16.577, 72.434, 31.723
16.818, 72.439, 30.960
17.063, 72.430, 30.161
17.311, 72.408, 29.381
17.563, 72.374, 28.660
17.818, 72.338, 28.042
18.077, 72.308, 27.504
18.340, 72.291, 27.009
18.607, 72.288, 26.487
18.877, 72.290, 25.871
19.152, 72.286, 25.169
19.431, 72.267, 24.416
19.713, 72.225, 23.709
20.000, 72.170, 23.167
20.291, 72.119, 22.831
20.586, 72.090, 22.675
20.885, 72.100, 22.599
21.189, 72.150, 22.432
21.497, 72.224, 22.038
21.810, 72.298, 21.392
22.127, 72.352, 20.547
22.449, 72.378, 19.607
22.776, 72.374, 18.679
23.107, 72.349, 17.832
23.443, 72.312, 17.081
23.784, 72.267, 16.411
24.130, 72.214, 15.811
24.481, 72.154, 15.298
24.837, 72.089, 14.895
25.198, 72.026, 14.617
25.565, 71.972, 14.449
25.937, 71.936, 14.348
26.314, 71.923, 14.239
26.697, 71.932, 14.017
27.085, 71.951, 13.566
27.479, 71.953, 12.827
27.879, 71.906, 11.881
28.284, 71.788, 10.985
28.696, 71.614, 10.485
29.113, 71.440, 10.581
29.537, 71.333, 11.100
29.966, 71.313, 11.547
30.402, 71.327, 11.539
30.844, 71.299, 11.165
31.293, 71.201, 10.891
31.748, 71.078, 11.124
32.210, 71.006, 11.785
32.678, 71.006, 12.425
33.154, 71.028, 12.776
33.636, 71.025, 13.017
34.125, 71.010, 13.462
34.621, 71.027, 14.102
35.125, 71.084, 14.679
35.636, 71.152, 15.112
36.154, 71.226, 15.556
36.680, 71.337, 16.006
37.214, 71.490, 16.191
37.755, 71.641, 15.990
38.304, 71.767, 15.607
38.861, 71.890, 15.146
39.427, 72.013, 14.382
40.000, 72.073, 13.301
40.582, 72.035, 12.460
41.172, 71.988, 12.390
41.771, 72.042, 12.686
42.379, 72.174, 12.527
42.995, 72.274, 11.907
43.620, 72.334, 11.340
44.255, 72.421, 10.768
44.898, 72.493, 9.649
45.552, 72.437, 8.314
46.214, 72.283, 7.818
46.886, 72.234, 8.194
47.568, 72.331, 7.937
48.260, 72.346, 6.633
48.962, 72.202, 5.664
49.674, 72.086, 5.563
50.397, 72.057, 5.268
51.130, 71.970, 4.636
51.874, 71.832, 4.565
52.628, 71.762, 4.995
53.394, 71.763, 5.345
54.170, 71.780, 5.515
54.958, 71.793, 5.760
55.758, 71.867, 6.230
56.569, 72.018, 6.064
57.391, 72.058, 5.318
58.226, 72.054, 5.382
59.073, 72.186, 5.210
59.932, 72.208, 4.206
60.804, 72.160, 4.254
61.688, 72.291, 4.183
62.586, 72.332, 3.100
63.496, 72.286, 2.801
64.420, 72.350, 2.555
65.357, 72.378, 1.744
66.307, 72.341, 1.075
67.272, 72.284, 0.785
68.250, 72.285, 0.728
69.243, 72.295, 0.370
70.250, 72.291, 0.180
71.272, 72.319, -0.112
72.309, 72.330, -0.512
73.360, 72.341, -0.948
74.427, 72.342, -1.517
75.510, 72.280, -2.064
76.608, 72.273, -1.932
77.723, 72.337, -2.724
78.853, 72.249, -3.327
80.000, 72.233, -3.417
81.164, 72.235, -3.692
82.344, 72.223, -4.032
83.542, 72.238, -4.222
84.757, 72.232, -4.829
85.990, 72.229, -5.079
87.241, 72.222, -5.792
88.510, 72.162, -5.925
89.797, 72.212, -6.117
91.103, 72.156, -6.590
92.428, 72.205, -6.877
93.773, 72.014, -7.922
95.137, 71.967, -7.177
96.520, 71.920, -8.006
97.924, 71.862, -7.841
99.349, 71.865, -7.964
100.794, 71.935, -8.069
102.260, 71.988, -9.312
103.747, 71.779, -9.334
105.256, 71.865, -9.511
106.787, 71.845, -9.573
108.340, 71.839, -10.075
109.916, 71.838, -10.323
111.515, 71.796, -10.480
113.137, 71.802, -10.568
114.783, 71.688, -11.752
116.452, 71.684, -11.280
118.146, 71.731, -11.798
119.865, 71.628, -12.243
121.608, 71.657, -11.586
123.377, 71.562, -12.057
125.171, 71.522, -12.275
126.992, 71.505, -12.311
128.839, 71.442, -13.482
130.713, 71.415, -12.831
132.615, 71.398, -13.590
134.543, 71.276, -13.324
136.500, 71.224, -14.222
138.486, 71.247, -14.368
140.500, 71.169, -14.382
142.544, 71.193, -14.596
144.617, 71.135, -14.776
146.721, 71.109, -14.990
148.855, 71.146, -14.852
151.020, 71.010, -14.754
153.217, 70.895, -15.097
155.445, 70.910, -14.643
157.706, 70.897, -15.519
160.000, 70.813, -15.402
162.327, 70.735, -15.346
164.688, 70.703, -16.387
167.084, 70.706, -15.182
169.514, 70.695, -14.409
171.980, 70.668, -14.219
174.481, 70.647, -14.503
177.019, 70.576, -14.702
179.594, 70.647, -13.770
182.206, 70.690, -14.599
184.856, 70.631, -14.626
187.545, 70.664, -14.551
190.273, 70.687, -15.570
193.041, 70.638, -15.331
195.849, 70.698, -15.754
198.697, 70.535, -15.527
201.587, 70.606, -15.608
204.520, 70.520, -15.603
207.494, 70.454, -16.152
210.512, 70.614, -15.703
213.574, 70.566, -15.488
216.681, 70.577, -15.328
219.833, 70.520, -15.735
223.030, 70.609, -16.290
226.274, 70.625, -16.124
229.565, 70.568, -16.669
232.905, 70.682, -16.672
236.292, 70.641, -17.264
239.729, 70.665, -17.049
243.216, 70.644, -17.679
246.754, 70.589, -18.377
250.343, 70.588, -18.451
253.984, 70.470, -19.120
257.678, 70.515, -19.707
261.426, 70.494, -19.648
265.229, 70.419, -20.078
269.087, 70.393, -20.765
273.001, 70.439, -21.238
276.972, 70.523, -21.992
281.000, 70.332, -21.945
285.088, 70.349, -23.078
289.234, 70.232, -23.456
293.441, 70.116, -24.230
297.710, 70.001, -25.034
302.040, 69.971, -25.716
306.433, 69.805, -26.542
310.890, 69.664, -26.081
315.412, 69.416, -27.093
320.000, 69.265, -26.942
324.655, 69.092, -26.929
329.377, 68.917, -26.887
334.168, 68.736, -26.508
339.028, 68.580, -25.432
343.959, 68.360, -25.717
348.962, 68.303, -24.085
354.038, 68.260, -23.607
359.188, 68.199, -22.559
364.412, 68.087, -22.348
369.713, 68.021, -21.624
375.090, 67.973, -21.080
380.546, 67.977, -20.666
386.081, 67.907, -20.462
391.697, 67.897, -19.449
397.395, 67.836, -19.610
403.175, 67.774, -18.752
409.039, 67.731, -18.400
414.989, 67.735, -17.919
421.025, 67.737, -17.423
427.149, 67.682, -16.913
433.362, 67.616, -16.199
439.665, 67.628, -15.991
446.060, 67.613, -15.883
452.548, 67.530, -14.792
459.131, 67.550, -14.300
465.809, 67.565, -14.060
472.584, 67.556, -13.016
479.458, 67.642, -12.751
486.432, 67.695, -12.774
493.507, 67.605, -12.738
500.686, 67.783, -12.450
507.968, 67.803, -11.663
515.357, 67.776, -12.116
522.853, 67.840, -12.192
530.458, 67.839, -12.164
538.174, 67.798, -12.510
546.002, 67.748, -12.943
553.943, 67.731, -12.494
562.001, 67.602, -13.217
570.175, 67.691, -13.510
578.469, 67.427, -14.063
586.883, 67.294, -13.867
595.419, 67.111, -13.394
604.080, 66.982, -13.693
612.866, 66.800, -12.323
621.780, 66.553, -11.914
630.824, 66.364, -10.505
640.000, 66.380, -9.702
649.309, 66.154, -8.191
658.753, 66.141, -7.032
668.335, 66.005, -5.260
678.056, 65.900, -3.757
687.919, 65.909, -2.267
697.925, 65.964, -0.158
708.076, 65.973, 1.100
718.376, 66.048, 3.076
728.825, 66.050, 4.814
739.426, 66.165, 5.351
750.181, 66.229, 7.033
761.093, 66.324, 8.050
772.163, 66.452, 9.466
783.394, 66.557, 10.651
794.789, 66.603, 11.925
806.349, 66.759, 13.440
818.078, 66.877, 14.880
829.977, 67.065, 16.013
842.050, 67.247, 17.123
854.297, 67.454, 17.955
866.724, 67.687, 18.908
879.330, 67.929, 19.740
892.120, 68.166, 20.054
905.097, 68.386, 20.365
918.262, 68.629, 20.129
931.618, 68.784, 19.981
945.169, 68.913, 19.247
958.917, 68.970, 19.164
972.864, 68.999, 19.989
987.015, 69.094, 20.120
1001.371, 69.105, 19.832
1015.937, 69.194, 20.596
1030.714, 69.268, 21.106
1045.706, 69.343, 21.655
1060.916, 69.421, 22.335
1076.347, 69.507, 23.219
1092.003, 69.625, 24.356
1107.887, 69.785, 25.315
1124.001, 69.964, 26.168
1140.350, 70.197, 27.083
1156.937, 70.460, 27.562
1173.765, 70.729, 27.742
1190.838, 70.933, 27.757
1208.159, 71.141, 27.469
1225.732, 71.311, 27.202
1243.561, 71.450, 27.021
1261.649, 71.592, 27.007
1280.000, 71.722, 27.163
1298.618, 71.859, 27.186
1317.507, 72.009, 27.349
1336.670, 72.160, 27.463
1356.113, 72.318, 27.697
1375.838, 72.486, 27.713
1395.850, 72.672, 27.942
1416.153, 72.878, 27.862
1436.751, 73.088, 27.740
1457.649, 73.296, 27.302
1478.851, 73.498, 26.851
1500.362, 73.665, 26.138
1522.185, 73.790, 25.352
1544.326, 73.873, 24.593
1566.789, 73.945, 24.073
1589.578, 74.003, 23.751
1612.699, 74.038, 23.445
1636.156, 74.038, 23.275
1659.955, 74.025, 23.832
1684.099, 74.117, 25.194
1708.595, 74.424, 26.272
1733.447, 74.805, 25.892
1758.661, 75.043, 24.401
1784.241, 75.117, 23.165
1810.193, 75.125, 22.387
1836.523, 75.135, 22.047
1863.236, 75.156, 22.084
1890.338, 75.209, 22.430
1917.833, 75.308, 22.673
1945.729, 75.417, 22.868
1974.030, 75.549, 23.026
2002.743, 75.702, 23.150
2031.873, 75.865, 23.134
2061.428, 76.013, 22.890
2091.412, 76.148, 22.554
2121.832, 76.258, 22.347
2152.695, 76.357, 22.038
2184.007, 76.439, 21.932
2215.774, 76.517, 21.936
2248.003, 76.598, 22.245
2280.701, 76.720, 22.690
2313.874, 76.893, 23.067
2347.530, 77.082, 23.397
2381.676, 77.292, 23.543
2416.318, 77.492, 23.644
2451.464, 77.726, 23.483
2487.122, 77.940, 23.596
2523.298, 78.196, 23.651
2560.000, 78.481, 23.580
2597.236, 78.809, 23.328
2635.014, 79.159, 22.825
2673.341, 79.553, 22.013
2712.226, 79.969, 20.637
2751.676, 80.436, 18.446
2791.700, 80.763, 15.372
2832.306, 80.935, 11.798
2873.503, 81.011, 8.753
2915.299, 81.038, 5.862
2957.703, 81.053, 3.245
3000.724, 81.080, 0.471
3044.370, 81.061, -2.541
3088.652, 80.993, -5.852
3133.577, 80.831, -9.302
3179.156, 80.542, -12.700
3225.398, 80.140, -15.667
3272.312, 79.688, -18.079
3319.909, 79.147, -20.341
3368.198, 78.432, -21.637
3417.190, 77.658, -20.551
3466.894, 77.258, -17.315
3517.321, 77.293, -15.678
3568.482, 77.205, -16.232
3620.387, 76.942, -16.844
3673.046, 76.602, -17.149
3726.472, 76.190, -16.390
3780.675, 75.909, -15.176
3835.666, 75.723, -14.329
3891.457, 75.486, -13.936
3948.060, 75.188, -13.117
4005.486, 74.974, -12.068
4063.747, 74.758, -11.572
4122.855, 74.438, -11.227
4182.824, 74.029, -10.002
4243.664, 73.694, -7.851
4305.390, 73.534, -5.667
4368.013, 73.369, -4.139
4431.547, 73.225, -2.730
4496.005, 73.026, -1.309
4561.401, 72.876, 0.003
4627.749, 72.625, 1.240
4695.061, 72.450, 3.363
4763.352, 72.325, 4.954
4832.637, 72.223, 6.645
4902.929, 72.139, 7.551
4974.244, 71.912, 8.632
5046.596, 71.862, 10.542
5120.000, 71.968, 10.736
5194.472, 71.919, 9.352
5270.027, 71.661, 7.067
5346.682, 70.988, 4.799
5424.451, 70.235, 4.576
5503.352, 69.421, 4.023
5583.399, 68.228, 6.560
5664.612, 67.751, 9.893
5747.006, 66.789, 10.485
5830.598, 65.676, 14.549
5915.406, 64.920, 19.517
6001.447, 64.298, 23.530
6088.740, 63.487, 25.437
6177.303, 62.330, 26.744
6267.154, 60.197, 28.130
6358.312, 57.537, 42.818
6450.796, 56.395, 53.159
6544.625, 52.138, 70.646
6639.818, 52.477, 129.429
6736.397, 56.258, 148.093
6834.380, 59.968, 169.641
6933.789, 64.684, 162.705
7034.643, 65.606, 151.977
7136.964, 66.448, 149.312
7240.773, 66.012, 136.383
7346.093, 62.956, 154.658
7452.944, 64.825, 169.244
7561.350, 65.566, 176.563
7671.332, 67.536, -174.548
7782.915, 69.760, -168.210
7896.120, 71.759, -174.521
8010.971, 72.987, 176.268
8127.493, 72.970, 167.220
8245.711, 72.727, 164.435
8365.647, 72.623, 158.836
8487.328, 71.665, 155.534
8610.779, 70.887, 156.388
8736.026, 70.276, 157.524
8863.095, 69.449, 161.443
8992.011, 69.413, 162.694
9122.803, 69.272, 160.553
9255.497, 68.449, 156.303
9390.121, 67.334, 152.937
9526.704, 65.703, 147.304
9665.273, 63.017, 142.313
9805.857, 59.306, 137.881
9948.487, 52.716, 125.186
10093.191, 45.050, -3.231
10240.000, 55.938, -45.948
10388.944, 59.803, -55.095
10540.055, 61.518, -59.907
10693.363, 62.216, -59.605
10848.902, 62.528, -56.900
11006.703, 62.567, -50.140
11166.799, 63.156, -38.062
11329.224, 64.806, -31.365
11494.012, 66.082, -32.398
11661.195, 66.118, -35.529
11830.812, 65.009, -35.832
12002.895, 63.524, -23.673
12177.480, 64.040, -8.525
12354.606, 64.532, -1.918
12534.309, 64.680, 8.949
12716.624, 65.704, 19.014
12901.592, 67.233, 24.050
13089.250, 68.476, 20.516
13279.637, 68.239, 11.802
13472.794, 66.488, 7.090
13668.760, 63.775, 10.582
13867.577, 61.523, 24.881
14069.285, 59.924, 43.012
14273.928, 59.163, 65.192
14481.547, 60.093, 89.757
14692.186, 62.350, 101.126
14905.889, 63.663, 98.801
15122.700, 63.311, 94.235
15342.664, 61.396, 91.847
15565.829, 58.953, 98.341
15792.239, 56.483, 103.678
16021.942, 51.870, 105.365
16254.986, 33.689, 59.580
16491.422, 52.484, -64.835
16731.295, 59.396, -71.284
16974.656, 63.209, -76.830
17221.559, 65.965, -77.917
17472.053, 66.637, -91.013
17726.189, 65.398, -97.537
17984.021, 64.409, -91.139
18245.605, 63.842, -90.981
18510.994, 59.602, -75.750
18780.242, 62.032, -67.813
19053.408, 64.217, -35.503
19330.547, 64.010, -21.255
19611.715, 63.374, -20.503
19896.975, 62.601, -34.653
