* Measurement data measured by REW V5.19
* Source: In 1-2 (MOTU M Series), no input selected, L, volume: no control
* Format: 1M Log Swept Sine, 1 sweep at -3.0 dBFS  With no timing reference
* Dated: 23 Sep, 2020 5:36:14 PM
* REW Settings:
*  C-weighting compensation: Off
*  Target level: 75.0 dB
* Note: ; 
* Measurement: Sep 23 17:36:14
* Smoothing: None
* Frequency Step: 1/48 octave
* Start Frequency: 10.0 Hz
*
* Freq(Hz), SPL(dB), Phase(degrees)
10.145, 71.128, 64.615
10.293, 71.152, 63.492
10.443, 71.175, 62.489
10.595, 71.200, 61.505
10.749, 71.226, 60.534
10.905, 71.253, 59.576
11.064, 71.280, 58.623
11.225, 71.307, 57.676
11.388, 71.334, 56.735
11.554, 71.360, 55.799
11.722, 71.385, 54.874
11.892, 71.408, 53.962
12.065, 71.431, 53.064
12.241, 71.453, 52.183
12.419, 71.475, 51.316
12.599, 71.499, 50.460
12.782, 71.524, 49.610
12.968, 71.550, 48.755
13.157, 71.576, 47.893
13.348, 71.601, 47.015
13.543, 71.625, 46.124
13.740, 71.644, 45.218
13.939, 71.658, 44.310
14.142, 71.667, 43.407
14.348, 71.671, 42.523
14.557, 71.670, 41.666
14.768, 71.667, 40.841
14.983, 71.663, 40.047
15.201, 71.660, 39.276
15.422, 71.659, 38.518
15.646, 71.658, 37.760
15.874, 71.657, 36.997
16.105, 71.654, 36.229
16.339, 71.646, 35.467
16.577, 71.636, 34.729
16.818, 71.623, 34.027
17.063, 71.612, 33.371
17.311, 71.607, 32.746
17.563, 71.609, 32.134
17.818, 71.621, 31.490
18.077, 71.636, 30.782
18.340, 71.650, 30.000
18.607, 71.652, 29.149
18.877, 71.638, 28.296
19.152, 71.607, 27.508
19.431, 71.565, 26.849
19.713, 71.524, 26.371
20.000, 71.504, 26.043
20.291, 71.513, 25.772
20.586, 71.552, 25.447
20.885, 71.614, 24.952
21.189, 71.678, 24.223
21.497, 71.722, 23.292
21.810, 71.733, 22.262
22.127, 71.707, 21.254
22.449, 71.649, 20.387
22.776, 71.574, 19.740
23.107, 71.499, 19.331
23.443, 71.441, 19.121
23.784, 71.410, 19.020
24.130, 71.412, 18.904
24.481, 71.440, 18.646
24.837, 71.475, 18.149
25.198, 71.493, 17.401
25.565, 71.469, 16.504
25.937, 71.395, 15.661
26.314, 71.287, 15.084
26.697, 71.181, 14.860
27.085, 71.117, 14.854
27.479, 71.103, 14.770
27.879, 71.110, 14.378
28.284, 71.091, 13.698
28.696, 71.020, 12.995
29.113, 70.915, 12.565
29.537, 70.823, 12.481
29.966, 70.776, 12.522
30.402, 70.760, 12.409
30.844, 70.733, 12.103
31.293, 70.669, 11.834
31.748, 70.590, 11.851
32.210, 70.538, 12.125
32.678, 70.522, 12.388
33.154, 70.507, 12.485
33.636, 70.453, 12.618
34.125, 70.378, 13.164
34.621, 70.351, 14.206
35.125, 70.428, 15.313
35.636, 70.576, 15.959
36.154, 70.722, 16.079
36.680, 70.837, 16.014
37.214, 70.950, 15.969
37.755, 71.095, 15.762
38.304, 71.247, 15.147
38.861, 71.361, 14.190
39.427, 71.421, 13.145
40.000, 71.441, 12.200
40.582, 71.432, 11.498
41.172, 71.433, 11.171
41.771, 71.496, 10.995
42.379, 71.604, 10.441
42.995, 71.661, 9.503
43.620, 71.645, 8.840
44.255, 71.665, 8.745
44.898, 71.795, 8.464
45.552, 71.945, 7.289
46.214, 71.985, 5.399
46.886, 71.859, 3.595
47.568, 71.638, 2.795
48.260, 71.516, 2.979
48.962, 71.537, 2.746
49.674, 71.482, 1.726
50.397, 71.299, 1.435
51.130, 71.229, 2.071
51.874, 71.257, 2.054
52.628, 71.167, 1.870
53.394, 71.103, 2.685
54.170, 71.195, 3.145
54.958, 71.217, 2.773
55.758, 71.176, 2.962
56.569, 71.256, 3.146
57.391, 71.309, 2.437
58.226, 71.267, 2.017
59.073, 71.306, 1.935
59.932, 71.373, 1.212
60.804, 71.359, 0.407
61.688, 71.330, -0.099
62.586, 71.290, -0.462
63.496, 71.268, -0.519
64.420, 71.282, -0.738
65.357, 71.267, -1.001
66.307, 71.291, -1.297
67.272, 71.271, -2.121
68.250, 71.174, -2.477
69.243, 71.153, -2.523
70.250, 71.158, -2.849
71.272, 71.140, -3.266
72.309, 71.113, -3.346
73.360, 71.159, -3.594
74.427, 71.113, -4.071
75.510, 71.120, -3.988
76.608, 71.089, -4.630
77.723, 71.011, -4.243
78.853, 71.066, -4.521
80.000, 70.956, -4.835
81.164, 70.931, -4.501
82.344, 70.951, -4.623
83.542, 70.956, -5.144
84.757, 70.947, -5.510
85.990, 70.915, -6.395
87.241, 70.804, -6.153
88.510, 70.864, -5.868
89.797, 70.902, -6.325
91.103, 70.771, -6.236
92.428, 70.839, -5.814
93.773, 70.856, -5.766
95.137, 70.986, -6.795
96.520, 70.843, -7.283
97.924, 70.934, -7.204
99.349, 70.808, -7.481
100.794, 70.957, -6.971
102.260, 70.778, -7.531
103.747, 70.854, -7.114
105.256, 70.783, -7.235
106.787, 70.863, -7.579
108.340, 70.826, -7.850
109.916, 70.814, -8.194
111.515, 70.828, -7.978
113.137, 70.775, -7.570
114.783, 70.931, -8.512
116.452, 70.738, -7.918
118.146, 70.840, -8.131
119.865, 70.862, -8.354
121.608, 70.845, -9.459
123.377, 70.836, -8.935
125.171, 70.885, -8.785
126.992, 70.972, -8.954
128.839, 70.880, -9.756
130.713, 71.080, -8.823
132.615, 71.024, -9.887
134.543, 70.957, -9.796
136.500, 71.021, -10.119
138.486, 71.087, -10.160
140.500, 71.037, -11.228
142.544, 71.009, -10.843
144.617, 71.046, -11.312
146.721, 71.084, -11.569
148.855, 71.069, -11.556
151.020, 71.102, -11.983
153.217, 71.129, -13.016
155.445, 71.103, -12.804
157.706, 71.145, -13.767
160.000, 71.187, -13.937
162.327, 71.245, -13.793
164.688, 71.164, -14.217
167.084, 71.188, -13.972
169.514, 71.186, -14.588
171.980, 71.300, -14.564
174.481, 71.338, -15.365
177.019, 71.410, -15.936
179.594, 71.513, -15.765
182.206, 71.456, -17.358
184.856, 71.437, -17.607
187.545, 71.464, -18.322
190.273, 71.380, -18.249
193.041, 71.381, -18.987
195.849, 71.388, -19.126
198.697, 71.506, -20.052
201.587, 71.383, -20.345
204.520, 71.421, -20.419
207.494, 71.444, -21.511
210.512, 71.425, -22.133
213.574, 71.425, -22.648
216.681, 71.351, -23.099
219.833, 71.385, -24.022
223.030, 71.426, -24.832
226.274, 71.404, -24.707
229.565, 71.366, -25.567
232.905, 71.411, -26.457
236.292, 71.388, -26.878
239.729, 71.255, -27.793
243.216, 71.339, -28.657
246.754, 71.280, -29.208
250.343, 71.203, -30.415
253.984, 71.130, -31.197
257.678, 71.109, -31.814
261.426, 71.067, -32.231
265.229, 71.008, -32.891
269.087, 70.966, -33.397
273.001, 70.939, -34.404
276.972, 70.874, -35.281
281.000, 70.793, -36.283
285.088, 70.735, -37.024
289.234, 70.597, -38.034
293.441, 70.462, -38.766
297.710, 70.351, -39.576
302.040, 70.168, -40.440
306.433, 69.963, -40.258
310.890, 69.711, -41.329
315.412, 69.656, -41.713
320.000, 69.456, -41.570
324.655, 69.322, -41.340
329.377, 69.110, -41.660
334.168, 69.038, -40.846
339.028, 68.861, -40.915
343.959, 68.755, -40.287
348.962, 68.740, -39.961
354.038, 68.656, -39.695
359.188, 68.620, -39.204
364.412, 68.623, -39.067
369.713, 68.525, -38.922
375.090, 68.527, -39.279
380.546, 68.474, -39.261
386.081, 68.454, -39.329
391.697, 68.347, -39.401
397.395, 68.258, -39.728
403.175, 68.169, -39.870
409.039, 68.116, -39.809
414.989, 68.026, -39.824
421.025, 67.951, -40.062
427.149, 67.787, -39.287
433.362, 67.668, -39.382
439.665, 67.645, -39.543
446.060, 67.555, -38.452
452.548, 67.472, -37.905
459.131, 67.495, -37.041
465.809, 67.473, -36.471
472.584, 67.467, -35.640
479.458, 67.443, -35.702
486.432, 67.560, -34.741
493.507, 67.590, -34.501
500.686, 67.715, -33.839
507.968, 67.812, -34.160
515.357, 67.909, -34.494
522.853, 67.991, -34.694
530.458, 68.102, -35.371
538.174, 68.099, -36.158
546.002, 68.155, -37.242
553.943, 68.080, -38.031
562.001, 68.083, -39.341
570.175, 67.976, -40.270
578.469, 67.836, -41.102
586.883, 67.622, -41.902
595.419, 67.462, -41.572
604.080, 67.300, -41.527
612.866, 67.160, -41.152
621.780, 67.024, -41.513
630.824, 66.820, -40.847
640.000, 66.662, -39.708
649.309, 66.633, -38.825
658.753, 66.586, -38.500
668.335, 66.491, -36.351
678.056, 66.555, -35.404
687.919, 66.515, -34.333
697.925, 66.596, -33.504
708.076, 66.695, -32.942
718.376, 66.740, -31.981
728.825, 66.825, -31.431
739.426, 66.924, -30.912
750.181, 67.056, -30.539
761.093, 67.127, -29.908
772.163, 67.261, -29.449
783.394, 67.369, -29.381
794.789, 67.499, -29.087
806.349, 67.636, -28.845
818.078, 67.788, -28.806
829.977, 67.915, -28.919
842.050, 68.094, -28.972
854.297, 68.240, -29.291
866.724, 68.386, -29.504
879.330, 68.576, -29.890
892.120, 68.726, -30.746
905.097, 68.855, -31.474
918.262, 68.983, -32.725
931.618, 69.025, -34.063
945.169, 69.017, -35.220
958.917, 68.963, -36.054
972.864, 68.923, -36.546
987.015, 68.876, -36.932
1001.371, 68.837, -37.141
1015.937, 68.835, -37.194
1030.714, 68.816, -37.115
1045.706, 68.833, -37.140
1060.916, 68.830, -36.807
1076.347, 68.866, -36.529
1092.003, 68.935, -36.088
1107.887, 69.035, -35.709
1124.001, 69.181, -35.227
1140.350, 69.363, -35.174
1156.937, 69.563, -35.435
1173.765, 69.760, -35.871
1190.838, 69.923, -36.595
1208.159, 70.052, -37.343
1225.732, 70.164, -38.264
1243.561, 70.262, -38.736
1261.649, 70.342, -39.369
1280.000, 70.446, -39.847
1298.618, 70.557, -40.454
1317.507, 70.678, -40.878
1336.670, 70.817, -41.403
1356.113, 70.953, -41.948
1375.838, 71.126, -42.755
1395.850, 71.298, -43.497
1416.153, 71.455, -44.540
1436.751, 71.610, -45.747
1457.649, 71.764, -47.062
1478.851, 71.899, -48.506
1500.362, 71.970, -50.061
1522.185, 72.020, -51.674
1544.326, 72.033, -53.074
1566.789, 72.038, -54.332
1589.578, 72.046, -55.406
1612.699, 72.022, -56.523
1636.156, 71.962, -57.394
1659.955, 71.878, -57.496
1684.099, 71.914, -56.736
1708.595, 72.190, -56.285
1733.447, 72.525, -57.620
1758.661, 72.698, -59.697
1784.241, 72.753, -61.461
1810.193, 72.761, -62.807
1836.523, 72.787, -64.052
1863.236, 72.799, -64.923
1890.338, 72.822, -65.748
1917.833, 72.882, -66.448
1945.729, 72.955, -67.138
1974.030, 73.061, -67.764
2002.743, 73.197, -68.667
2031.873, 73.323, -69.666
2061.428, 73.446, -70.999
2091.412, 73.532, -72.249
2121.832, 73.603, -73.440
2152.695, 73.653, -74.626
2184.007, 73.703, -75.487
2215.774, 73.785, -76.191
2248.003, 73.870, -76.815
2280.701, 74.033, -77.566
2313.874, 74.195, -78.315
2347.530, 74.385, -79.429
2381.676, 74.534, -80.551
2416.318, 74.691, -81.537
2451.464, 74.889, -82.558
2487.122, 75.092, -83.410
2523.298, 75.358, -84.386
2560.000, 75.642, -85.615
2597.236, 75.992, -87.105
2635.014, 76.351, -88.671
2673.341, 76.786, -90.807
2712.226, 77.235, -93.881
2751.676, 77.656, -97.826
2791.700, 77.886, -102.246
2832.306, 78.016, -106.674
2873.503, 78.083, -110.722
2915.299, 78.138, -114.517
2957.703, 78.228, -118.347
3000.724, 78.310, -122.561
3044.370, 78.328, -127.288
3088.652, 78.252, -132.217
3133.577, 78.078, -137.168
3179.156, 77.783, -141.859
3225.398, 77.434, -146.172
3272.312, 77.005, -150.297
3319.909, 76.422, -154.134
3368.198, 75.678, -156.042
3417.190, 75.106, -155.187
3466.894, 75.068, -154.374
3517.321, 75.128, -156.287
3568.482, 74.961, -159.068
3620.387, 74.662, -161.685
3673.046, 74.267, -163.461
3726.472, 73.907, -163.866
3780.675, 73.758, -164.290
3835.666, 73.647, -165.800
3891.457, 73.410, -167.333
3948.060, 73.182, -168.038
4005.486, 73.074, -168.918
4063.747, 72.949, -170.462
4122.855, 72.694, -171.984
4182.824, 72.406, -172.344
4243.664, 72.345, -171.999
4305.390, 72.398, -172.934
4368.013, 72.363, -174.268
4431.547, 72.335, -175.663
4496.005, 72.286, -176.979
4561.401, 72.254, -178.767
4627.749, 72.150, 179.948
4695.061, 72.156, 178.567
4763.352, 72.162, 177.050
4832.637, 72.239, 174.883
4902.929, 72.174, 172.697
4974.244, 72.243, 170.742
5046.596, 72.423, 167.998
5120.000, 72.609, 163.710
5194.472, 72.639, 158.173
5270.027, 72.491, 151.750
5346.682, 72.138, 145.700
5424.451, 71.831, 137.882
5503.352, 70.817, 128.887
5583.399, 69.553, 122.859
5664.612, 67.949, 116.174
5747.006, 65.760, 113.722
5830.598, 63.777, 116.765
5915.406, 62.348, 121.223
6001.447, 60.735, 123.113
6088.740, 58.917, 128.744
6177.303, 56.752, 135.344
6267.154, 53.883, 154.818
6358.312, 54.076, 178.967
6450.796, 53.758, -157.852
6544.625, 56.758, -130.649
6639.818, 59.925, -127.351
6736.397, 61.960, -122.149
6834.380, 65.260, -121.777
6933.789, 66.870, -133.907
7034.643, 67.480, -139.953
7136.964, 67.921, -147.784
7240.773, 66.820, -141.952
7346.093, 69.549, -137.800
7452.944, 70.664, -145.800
7561.350, 71.526, -148.596
7671.332, 72.470, -152.337
7782.915, 74.115, -160.587
7896.120, 75.016, -173.305
8010.971, 75.075, 173.135
8127.493, 74.545, 164.147
8245.711, 74.427, 155.529
8365.647, 73.863, 146.900
8487.328, 73.305, 140.325
8610.779, 72.832, 133.655
8736.026, 72.543, 125.634
8863.095, 71.819, 117.012
8992.011, 71.141, 107.166
9122.803, 70.189, 94.207
9255.497, 68.425, 78.753
9390.121, 65.940, 62.764
9526.704, 62.736, 41.846
9665.273, 58.661, 5.410
9805.857, 56.398, -55.438
9948.487, 58.524, -102.204
10093.191, 60.768, -122.492
10240.000, 62.508, -131.921
10388.944, 64.101, -137.879
10540.055, 65.745, -143.102
10693.363, 67.340, -150.691
10848.902, 68.442, -162.839
11006.703, 68.418, -174.857
11166.799, 67.967, 177.366
11329.224, 67.210, 170.828
11494.012, 65.897, 168.239
11661.195, 64.982, 173.318
11830.812, 64.965, 179.322
12002.895, 65.694, -176.049
12177.480, 66.459, -176.648
12354.606, 66.889, -176.303
12534.309, 68.014, -176.793
12716.624, 69.167, 177.688
12901.592, 70.135, 166.469
13089.250, 70.205, 150.702
13279.637, 68.926, 135.359
13472.794, 66.515, 123.365
13668.760, 63.156, 120.482
13867.577, 59.788, 130.638
14069.285, 59.116, 153.860
14273.928, 60.526, 162.483
14481.547, 61.152, 157.770
14692.186, 59.784, 153.411
14905.889, 57.825, 164.179
15122.700, 59.001, 175.849
15342.664, 59.521, 170.066
15565.829, 58.203, 168.543
15792.239, 57.370, 172.503
16021.942, 56.192, 171.831
16254.986, 52.534, 171.872
16491.422, 46.380, -121.088
16731.295, 57.411, -84.891
16974.656, 63.397, -105.070
17221.559, 64.913, -125.423
17472.053, 63.693, -146.426
17726.189, 61.549, -152.299
17984.021, 60.914, -144.457
18245.605, 61.423, -147.237
18510.994, 58.814, -136.234
18780.242, 65.241, -143.664
19053.408, 65.901, -139.087
19330.547, 64.868, -142.806
19611.715, 63.144, -161.377
19896.975, 61.287, 175.512
