* Measurement data measured by REW V5.19
* Source: In 1-2 (MOTU M Series), no input selected, L, volume: no control
* Format: 1M Log Swept Sine, 1 sweep at -3.0 dBFS  With no timing reference
* Dated: 23 Sep, 2020 5:33:12 PM
* REW Settings:
*  C-weighting compensation: Off
*  Target level: 75.0 dB
* Note: ; 
* Measurement: Sep 23 17:33:12
* Smoothing: None
* Frequency Step: 1/48 octave
* Start Frequency: 10.0 Hz
*
* Freq(Hz), SPL(dB), Phase(degrees)
10.145, 67.827, 61.130
10.293, 67.832, 59.735
10.443, 67.820, 58.476
10.595, 67.801, 57.268
10.749, 67.777, 56.139
10.905, 67.748, 55.081
11.064, 67.724, 54.100
11.225, 67.702, 53.205
11.388, 67.688, 52.354
11.554, 67.686, 51.554
11.722, 67.693, 50.763
11.892, 67.712, 49.953
12.065, 67.740, 49.115
12.241, 67.772, 48.213
12.419, 67.806, 47.256
12.599, 67.835, 46.240
12.782, 67.859, 45.180
12.968, 67.871, 44.106
13.157, 67.874, 43.032
13.348, 67.864, 42.003
13.543, 67.846, 41.030
13.740, 67.822, 40.146
13.939, 67.795, 39.352
14.142, 67.771, 38.660
14.348, 67.753, 38.044
14.557, 67.745, 37.501
14.768, 67.750, 36.974
14.983, 67.768, 36.447
15.201, 67.796, 35.854
15.422, 67.827, 35.175
15.646, 67.857, 34.375
15.874, 67.870, 33.470
16.105, 67.860, 32.485
16.339, 67.817, 31.491
16.577, 67.743, 30.601
16.818, 67.638, 29.887
17.063, 67.523, 29.473
17.311, 67.421, 29.332
17.563, 67.351, 29.424
17.818, 67.334, 29.543
18.077, 67.358, 29.458
18.340, 67.401, 29.049
18.607, 67.426, 28.228
18.877, 67.389, 27.195
19.152, 67.282, 26.229
19.431, 67.116, 25.624
19.713, 66.935, 25.693
20.000, 66.832, 26.383
20.291, 66.854, 27.235
20.586, 67.004, 27.698
20.885, 67.226, 27.244
21.189, 67.411, 25.746
21.497, 67.468, 23.638
21.810, 67.372, 21.575
22.127, 67.161, 20.216
22.449, 66.934, 19.955
22.776, 66.821, 20.629
23.107, 66.902, 21.404
23.443, 67.125, 21.263
23.784, 67.339, 19.834
24.130, 67.407, 17.580
24.481, 67.280, 15.394
24.837, 67.013, 14.173
25.198, 66.749, 14.335
25.565, 66.641, 15.394
25.937, 66.724, 16.211
26.314, 66.883, 15.953
26.697, 66.961, 14.701
27.085, 66.876, 13.215
27.479, 66.658, 12.341
27.879, 66.420, 12.468
28.284, 66.277, 13.245
28.696, 66.252, 13.868
29.113, 66.260, 13.810
29.537, 66.200, 13.228
29.966, 66.032, 12.712
30.402, 65.800, 12.807
30.844, 65.593, 13.657
31.293, 65.483, 14.921
31.748, 65.473, 16.035
32.210, 65.499, 16.691
32.678, 65.491, 17.060
33.154, 65.431, 17.612
33.636, 65.371, 18.742
34.125, 65.395, 20.345
34.621, 65.531, 21.887
35.125, 65.720, 22.941
35.636, 65.887, 23.667
36.154, 66.034, 24.522
36.680, 66.233, 25.595
37.214, 66.525, 26.369
37.755, 66.845, 26.304
38.304, 67.093, 25.544
38.861, 67.253, 24.658
39.427, 67.383, 23.835
40.000, 67.496, 22.767
40.582, 67.527, 21.502
41.172, 67.480, 20.840
41.771, 67.528, 21.008
42.379, 67.784, 20.646
42.995, 68.032, 18.510
43.620, 68.011, 15.629
44.255, 67.764, 14.158
44.898, 67.640, 14.519
45.552, 67.770, 14.648
46.214, 67.909, 13.432
46.886, 67.887, 11.967
47.568, 67.810, 11.119
48.260, 67.748, 10.317
48.962, 67.590, 9.443
49.674, 67.331, 9.618
50.397, 67.210, 11.078
51.130, 67.316, 12.045
51.874, 67.398, 11.696
52.628, 67.332, 11.387
53.394, 67.275, 11.746
54.170, 67.270, 12.100
54.958, 67.282, 12.601
55.758, 67.399, 13.058
56.569, 67.542, 12.624
57.391, 67.583, 12.021
58.226, 67.642, 11.809
59.073, 67.743, 11.208
59.932, 67.761, 10.340
60.804, 67.728, 10.055
61.688, 67.765, 10.153
62.586, 67.843, 9.942
63.496, 67.913, 9.526
64.420, 67.958, 8.659
65.357, 67.873, 7.902
66.307, 67.838, 7.971
67.272, 67.876, 7.279
68.250, 67.767, 6.762
69.243, 67.786, 7.230
70.250, 67.907, 6.564
71.272, 67.854, 5.820
72.309, 67.850, 5.881
73.360, 67.844, 5.320
74.427, 67.730, 5.545
75.510, 67.809, 6.004
76.608, 67.846, 5.207
77.723, 67.779, 4.929
78.853, 67.809, 4.838
80.000, 67.802, 4.165
81.164, 67.696, 4.183
82.344, 67.710, 4.908
83.542, 67.828, 4.622
84.757, 67.732, 3.631
85.990, 67.645, 4.158
87.241, 67.712, 3.840
88.510, 67.680, 3.792
89.797, 67.834, 3.549
91.103, 67.724, 3.171
92.428, 67.996, 3.250
93.773, 67.617, 1.803
95.137, 67.858, 4.154
96.520, 67.823, 2.292
97.924, 67.793, 3.243
99.349, 68.049, 2.801
100.794, 67.860, 2.093
102.260, 67.960, 2.446
103.747, 67.980, 2.796
105.256, 67.918, 1.718
106.787, 67.952, 2.400
108.340, 67.993, 1.991
109.916, 67.920, 1.647
111.515, 67.990, 2.992
113.137, 68.078, 1.405
114.783, 67.963, 1.409
116.452, 67.879, 1.892
118.146, 68.155, 1.488
119.865, 68.210, 0.896
121.608, 68.181, 0.719
123.377, 68.320, 0.593
125.171, 68.186, 0.580
126.992, 68.091, -0.454
128.839, 68.269, 0.710
130.713, 68.259, -1.317
132.615, 68.238, -0.465
134.543, 68.265, -1.868
136.500, 68.413, -1.289
138.486, 68.411, -0.261
140.500, 68.446, -2.460
142.544, 68.426, -1.814
144.617, 68.437, -2.175
146.721, 68.338, -2.530
148.855, 68.386, -2.938
151.020, 68.520, -3.262
153.217, 68.521, -4.100
155.445, 68.781, -3.301
157.706, 68.715, -3.629
160.000, 68.762, -4.871
162.327, 68.801, -5.141
164.688, 68.910, -6.689
167.084, 68.630, -6.800
169.514, 68.766, -6.963
171.980, 68.770, -8.142
174.481, 68.755, -8.911
177.019, 68.824, -9.326
179.594, 68.805, -9.431
182.206, 68.747, -10.104
184.856, 68.765, -10.740
187.545, 68.721, -11.570
190.273, 68.812, -12.127
193.041, 68.799, -12.406
195.849, 68.673, -12.313
198.697, 68.605, -14.268
201.587, 68.718, -14.081
204.520, 68.566, -14.702
207.494, 68.675, -14.919
210.512, 68.459, -15.818
213.574, 68.448, -16.293
216.681, 68.345, -16.884
219.833, 68.324, -16.975
223.030, 68.342, -17.526
226.274, 68.356, -17.860
229.565, 68.221, -18.246
232.905, 68.200, -17.984
236.292, 68.141, -18.298
239.729, 68.060, -19.481
243.216, 67.950, -19.593
246.754, 68.028, -20.319
250.343, 67.988, -20.620
253.984, 68.006, -20.480
257.678, 67.810, -20.793
261.426, 67.837, -21.392
265.229, 67.767, -21.890
269.087, 67.695, -22.109
273.001, 67.683, -22.615
276.972, 67.592, -22.814
281.000, 67.491, -23.240
285.088, 67.500, -22.888
289.234, 67.402, -23.760
293.441, 67.322, -24.009
297.710, 67.202, -24.049
302.040, 67.187, -24.854
306.433, 67.108, -24.663
310.890, 67.018, -25.261
315.412, 66.907, -25.688
320.000, 66.816, -25.686
324.655, 66.755, -25.835
329.377, 66.636, -25.836
334.168, 66.551, -25.961
339.028, 66.437, -26.764
343.959, 66.431, -26.140
348.962, 66.356, -25.567
354.038, 66.172, -26.361
359.188, 66.138, -26.189
364.412, 65.989, -26.498
369.713, 65.815, -26.161
375.090, 65.820, -26.164
380.546, 65.714, -26.351
386.081, 65.627, -26.102
391.697, 65.503, -25.972
397.395, 65.413, -25.872
403.175, 65.160, -25.471
409.039, 65.070, -24.557
414.989, 64.882, -24.341
421.025, 64.861, -23.463
427.149, 64.714, -22.500
433.362, 64.646, -21.766
439.665, 64.598, -20.333
446.060, 64.561, -19.058
452.548, 64.545, -18.468
459.131, 64.591, -17.569
465.809, 64.621, -16.684
472.584, 64.671, -16.151
479.458, 64.746, -15.388
486.432, 64.759, -14.484
493.507, 64.739, -14.345
500.686, 64.840, -13.908
507.968, 64.886, -13.458
515.357, 64.941, -13.194
522.853, 64.966, -13.089
530.458, 64.984, -12.631
538.174, 65.041, -12.250
546.002, 65.088, -11.927
553.943, 65.036, -11.887
562.001, 65.156, -11.458
570.175, 65.164, -11.117
578.469, 65.141, -10.783
586.883, 65.206, -10.486
595.419, 65.206, -10.280
604.080, 65.221, -9.901
612.866, 65.254, -9.590
621.780, 65.284, -9.062
630.824, 65.352, -8.478
640.000, 65.346, -8.089
649.309, 65.415, -7.195
658.753, 65.527, -6.620
668.335, 65.572, -6.021
678.056, 65.683, -5.396
687.919, 65.842, -4.996
697.925, 65.947, -4.616
708.076, 66.101, -4.482
718.376, 66.267, -4.419
728.825, 66.393, -4.244
739.426, 66.536, -4.341
750.181, 66.679, -4.526
761.093, 66.801, -4.818
772.163, 66.933, -5.133
783.394, 67.039, -5.335
794.789, 67.152, -5.836
806.349, 67.249, -6.369
818.078, 67.337, -6.849
829.977, 67.411, -7.325
842.050, 67.501, -8.101
854.297, 67.554, -8.817
866.724, 67.594, -9.432
879.330, 67.588, -10.146
892.120, 67.593, -10.828
905.097, 67.575, -11.320
918.262, 67.506, -11.593
931.618, 67.460, -11.564
945.169, 67.439, -11.408
958.917, 67.451, -11.141
972.864, 67.482, -10.767
987.015, 67.552, -10.476
1001.371, 67.667, -10.424
1015.937, 67.789, -10.574
1030.714, 67.876, -11.027
1045.706, 67.938, -11.520
1060.916, 67.971, -12.027
1076.347, 67.977, -12.408
1092.003, 67.995, -12.621
1107.887, 68.038, -12.801
1124.001, 68.042, -13.052
1140.350, 68.067, -13.283
1156.937, 68.091, -13.553
1173.765, 68.110, -13.789
1190.838, 68.133, -13.947
1208.159, 68.145, -14.150
1225.732, 68.157, -14.440
1243.561, 68.165, -14.621
1261.649, 68.181, -14.853
1280.000, 68.175, -15.107
1298.618, 68.163, -15.483
1317.507, 68.129, -15.652
1336.670, 68.097, -16.029
1356.113, 68.029, -16.171
1375.838, 67.924, -16.428
1395.850, 67.771, -16.319
1416.153, 67.581, -15.867
1436.751, 67.364, -14.649
1457.649, 67.202, -12.436
1478.851, 67.193, -9.458
1500.362, 67.388, -6.530
1522.185, 67.751, -4.530
1544.326, 68.127, -3.631
1566.789, 68.455, -3.417
1589.578, 68.719, -3.552
1612.699, 68.904, -3.625
1636.156, 69.066, -3.371
1659.955, 69.260, -2.872
1684.099, 69.524, -2.451
1708.595, 69.810, -2.419
1733.447, 70.050, -2.701
1758.661, 70.282, -2.925
1784.241, 70.533, -3.102
1810.193, 70.813, -3.415
1836.523, 71.111, -4.490
1863.236, 71.321, -5.528
1890.338, 71.465, -6.872
1917.833, 71.570, -7.950
1945.729, 71.630, -8.819
1974.030, 71.634, -9.126
2002.743, 71.728, -8.727
2031.873, 71.945, -8.031
2061.428, 72.234, -8.347
2091.412, 72.523, -8.965
2121.832, 72.769, -9.800
2152.695, 73.009, -10.835
2184.007, 73.240, -12.087
2215.774, 73.447, -13.647
2248.003, 73.569, -15.387
2280.701, 73.626, -17.037
2313.874, 73.601, -18.213
2347.530, 73.541, -18.513
2381.676, 73.592, -17.842
2416.318, 73.834, -17.314
2451.464, 74.192, -17.953
2487.122, 74.388, -18.626
2523.298, 74.716, -19.225
2560.000, 75.056, -20.833
2597.236, 75.299, -22.692
2635.014, 75.470, -24.459
2673.341, 75.652, -25.806
2712.226, 75.908, -27.305
2751.676, 76.213, -29.314
2791.700, 76.469, -31.846
2832.306, 76.652, -34.908
2873.503, 76.771, -38.101
2915.299, 76.796, -41.190
2957.703, 76.770, -43.960
3000.724, 76.774, -46.409
3044.370, 76.808, -49.453
3088.652, 76.728, -52.969
3133.577, 76.522, -56.575
3179.156, 76.099, -59.342
3225.398, 75.629, -60.416
3272.312, 75.381, -59.699
3319.909, 75.459, -59.395
3368.198, 75.628, -60.822
3417.190, 75.718, -63.473
3466.894, 75.625, -66.588
3517.321, 75.408, -69.125
3568.482, 75.187, -71.114
3620.387, 75.076, -72.870
3673.046, 75.012, -75.789
3726.472, 74.753, -79.487
3780.675, 74.271, -83.235
3835.666, 73.676, -85.356
3891.457, 73.151, -87.013
3948.060, 72.638, -88.864
4005.486, 72.000, -91.230
4063.747, 71.105, -92.788
4122.855, 70.063, -92.600
4182.824, 69.027, -89.615
4243.664, 68.388, -84.951
4305.390, 68.064, -80.885
4368.013, 67.776, -78.243
4431.547, 67.371, -75.234
4496.005, 67.044, -70.146
4561.401, 67.325, -65.598
4627.749, 67.508, -64.800
4695.061, 67.357, -63.957
4763.352, 67.161, -61.097
4832.637, 67.333, -58.316
4902.929, 67.495, -57.967
4974.244, 67.390, -57.395
5046.596, 67.232, -56.245
5120.000, 67.186, -53.455
5194.472, 67.471, -51.886
5270.027, 67.772, -52.824
5346.682, 67.649, -54.721
5424.451, 67.434, -54.540
5503.352, 67.570, -56.129
5583.399, 67.046, -60.172
5664.612, 65.922, -60.731
5747.006, 65.087, -57.464
5830.598, 64.462, -53.572
5915.406, 64.109, -48.861
6001.447, 63.771, -44.685
6088.740, 63.980, -40.337
6177.303, 64.003, -42.008
6267.154, 63.139, -42.360
6358.312, 62.259, -38.827
6450.796, 61.416, -36.643
6544.625, 59.843, -30.781
6639.818, 58.320, -16.693
6736.397, 58.337, 2.675
6834.380, 59.569, 18.902
6933.789, 61.410, 26.296
7034.643, 62.123, 27.887
7136.964, 62.701, 36.647
7240.773, 64.033, 42.930
7346.093, 65.329, 47.090
7452.944, 66.698, 49.699
7561.350, 67.981, 51.547
7671.332, 69.510, 50.900
7782.915, 70.828, 47.854
7896.120, 72.159, 42.236
8010.971, 72.826, 33.291
8127.493, 72.999, 25.573
8245.711, 72.985, 18.559
8365.647, 72.499, 11.185
8487.328, 71.668, 6.265
8610.779, 70.623, 2.957
8736.026, 69.530, 4.386
8863.095, 69.179, 5.954
8992.011, 67.900, 0.798
9122.803, 66.170, 10.453
9255.497, 65.959, 15.529
9390.121, 65.391, 24.849
9526.704, 65.737, 29.274
9665.273, 64.994, 30.219
9805.857, 63.957, 45.045
9948.487, 66.139, 51.917
10093.191, 66.754, 50.209
10240.000, 67.034, 47.578
10388.944, 66.808, 43.577
10540.055, 65.408, 39.459
10693.363, 63.806, 46.200
10848.902, 62.510, 51.688
11006.703, 61.322, 69.464
11166.799, 62.021, 86.660
11329.224, 63.601, 95.838
11494.012, 65.004, 97.367
11661.195, 65.521, 94.782
11830.812, 64.794, 96.462
12002.895, 65.200, 100.165
12177.480, 65.054, 102.302
12354.606, 64.734, 105.600
12534.309, 64.589, 110.818
12716.624, 64.511, 115.079
12901.592, 64.651, 123.180
13089.250, 65.245, 127.535
13279.637, 66.029, 129.247
13472.794, 66.664, 126.738
13668.760, 66.509, 119.559
13867.577, 65.643, 116.949
14069.285, 64.308, 110.862
14273.928, 62.147, 112.549
14481.547, 60.831, 119.877
14692.186, 60.207, 123.057
14905.889, 59.583, 117.281
15122.700, 57.530, 102.859
15342.664, 54.561, 73.282
15565.829, 53.674, 19.191
15792.239, 56.935, -25.629
16021.942, 59.554, -46.024
16254.986, 61.897, -55.660
16491.422, 63.978, -63.031
16731.295, 65.663, -74.663
16974.656, 65.730, -86.603
17221.559, 64.190, -96.732
17472.053, 62.554, -98.594
17726.189, 61.038, -89.112
17984.021, 59.915, -75.923
18245.605, 61.473, -52.695
18510.994, 62.434, -66.931
18780.242, 62.842, -46.176
19053.408, 58.299, -47.424
19330.547, 55.392, -57.495
19611.715, 55.424, -28.625
19896.975, 58.495, -30.276
