* Measurement data measured by REW V5.19
* Source: ASIO MOTU M Series, In 1
* Format: 1M Log Swept Sine, 1 sweep at -3.0 dBFS  With no timing reference
* Dated: 23 Sep, 2020 7:19:25 PM
* REW Settings:
*  C-weighting compensation: Off
*  Target level: 75.0 dB
* Note: ; 
* Measurement: Sep 23 19:19:25
* Smoothing: None
* Frequency Step: 1/48 octave
* Start Frequency: 10.1 Hz
*
* Freq(Hz), SPL(dB), Phase(degrees)
10.145, 53.174, -60.985
10.293, 53.327, -61.508
10.443, 53.484, -62.175
10.595, 53.681, -62.920
10.749, 53.888, -63.799
10.905, 54.090, -64.861
11.064, 54.287, -66.057
11.225, 54.458, -67.314
11.388, 54.609, -68.610
11.554, 54.734, -69.788
11.722, 54.840, -70.848
11.892, 54.943, -71.659
12.065, 55.049, -72.245
12.241, 55.190, -72.626
12.419, 55.365, -72.867
12.599, 55.593, -73.162
12.782, 55.863, -73.600
12.968, 56.167, -74.390
13.157, 56.473, -75.552
13.348, 56.764, -77.169
13.543, 57.001, -79.106
13.740, 57.173, -81.333
13.939, 57.256, -83.584
14.142, 57.251, -85.720
14.348, 57.154, -87.493
14.557, 57.000, -88.640
14.768, 56.806, -89.033
14.983, 56.645, -88.523
15.201, 56.566, -87.334
15.422, 56.617, -85.628
15.646, 56.817, -84.079
15.874, 57.130, -82.979
16.105, 57.518, -82.653
16.339, 57.899, -83.136
16.577, 58.238, -84.251
16.818, 58.503, -85.827
17.063, 58.679, -87.556
17.311, 58.774, -89.180
17.563, 58.800, -90.521
17.818, 58.797, -91.422
18.077, 58.798, -91.811
18.340, 58.828, -91.782
18.607, 58.931, -91.517
18.877, 59.113, -91.264
19.152, 59.366, -91.309
19.431, 59.652, -91.866
19.713, 59.927, -92.969
20.000, 60.151, -94.515
20.291, 60.295, -96.285
20.586, 60.347, -97.976
20.885, 60.323, -99.258
21.189, 60.268, -99.876
21.497, 60.251, -99.809
21.810, 60.336, -99.382
22.127, 60.535, -99.162
22.449, 60.799, -99.653
22.776, 61.037, -101.024
23.107, 61.163, -103.038
23.443, 61.125, -105.128
23.784, 60.936, -106.574
24.130, 60.687, -106.772
24.481, 60.531, -105.681
24.837, 60.598, -104.136
25.198, 60.870, -103.415
25.565, 61.187, -104.229
25.937, 61.373, -106.265
26.314, 61.344, -108.515
26.697, 61.150, -109.811
27.085, 60.976, -109.559
27.479, 61.032, -108.486
27.879, 61.332, -108.254
28.284, 61.667, -109.795
28.696, 61.816, -112.548
29.113, 61.705, -115.031
29.537, 61.465, -115.840
29.966, 61.372, -114.901
30.402, 61.579, -113.765
30.844, 61.948, -114.043
31.293, 62.228, -115.660
31.748, 62.329, -117.414
32.210, 62.345, -118.389
32.678, 62.417, -118.788
33.154, 62.551, -119.407
33.636, 62.638, -120.435
34.125, 62.629, -121.220
34.621, 62.612, -121.277
35.125, 62.693, -121.051
35.636, 62.839, -121.298
36.154, 62.941, -122.048
36.680, 62.979, -122.747
37.214, 63.016, -123.194
37.755, 63.077, -123.764
38.304, 63.106, -124.588
38.861, 63.078, -125.208
39.427, 63.067, -125.362
40.000, 63.141, -125.521
40.582, 63.236, -126.273
41.172, 63.245, -127.301
41.771, 63.189, -127.778
42.379, 63.213, -127.537
42.995, 63.393, -127.601
43.620, 63.589, -128.732
44.255, 63.657, -130.248
44.898, 63.661, -131.108
45.552, 63.755, -131.594
46.214, 63.891, -132.708
46.886, 63.901, -134.035
47.568, 63.851, -134.350
48.260, 63.936, -134.061
48.962, 64.092, -134.422
49.674, 64.166, -135.008
50.397, 64.235, -135.191
51.130, 64.327, -135.674
51.874, 64.316, -136.183
52.628, 64.333, -135.780
53.394, 64.539, -136.008
54.170, 64.621, -137.955
54.958, 64.418, -139.238
55.758, 64.326, -138.795
56.569, 64.468, -139.355
57.391, 64.435, -141.246
58.226, 64.232, -141.728
59.073, 64.271, -141.154
59.932, 64.403, -141.944
60.804, 64.364, -142.303
61.688, 64.553, -141.602
62.586, 64.854, -143.010
63.496, 64.821, -144.771
64.420, 64.758, -145.003
65.357, 64.753, -145.126
66.307, 64.787, -144.989
67.272, 64.836, -145.566
68.250, 64.753, -145.681
69.243, 64.805, -145.329
70.250, 64.885, -145.475
71.272, 65.048, -146.110
72.309, 65.045, -147.662
73.360, 65.041, -147.782
74.427, 65.119, -149.300
75.510, 64.849, -149.479
76.608, 64.984, -147.992
77.723, 65.096, -149.340
78.853, 64.894, -149.918
80.000, 64.734, -149.516
81.164, 64.792, -148.815
82.344, 64.953, -150.737
83.542, 64.804, -151.689
84.757, 64.974, -152.667
85.990, 64.783, -151.818
87.241, 65.350, -151.847
88.510, 64.800, -152.690
89.797, 65.127, -150.754
91.103, 64.458, -150.388
92.428, 65.421, -149.317
93.773, 64.864, -156.861
95.137, 64.838, -153.126
96.520, 65.163, -157.248
97.924, 64.893, -153.826
99.349, 65.529, -155.775
100.794, 64.890, -156.261
102.260, 64.808, -152.907
103.747, 65.272, -154.565
105.256, 64.968, -155.088
106.787, 65.052, -155.091
108.340, 65.259, -154.477
109.916, 65.055, -155.060
111.515, 64.954, -155.396
113.137, 65.120, -154.563
114.783, 65.066, -155.515
116.452, 65.344, -157.010
118.146, 65.188, -155.362
119.865, 65.191, -156.467
121.608, 65.242, -155.418
123.377, 65.004, -156.224
125.171, 65.526, -156.033
126.992, 65.190, -155.327
128.839, 65.482, -157.101
130.713, 65.663, -156.742
132.615, 65.462, -156.677
134.543, 65.668, -156.788
136.500, 65.921, -156.227
138.486, 65.581, -158.442
140.500, 65.712, -157.704
142.544, 65.570, -158.442
144.617, 65.684, -158.461
146.721, 65.781, -157.365
148.855, 65.828, -158.969
151.020, 65.852, -159.093
153.217, 65.629, -159.608
155.445, 65.826, -158.950
157.706, 65.744, -160.246
160.000, 65.959, -159.537
162.327, 65.669, -160.257
164.688, 66.152, -160.792
167.084, 66.029, -160.606
169.514, 65.971, -161.299
171.980, 66.082, -160.887
174.481, 66.092, -162.582
177.019, 66.130, -163.423
179.594, 66.232, -164.116
182.206, 66.124, -162.386
184.856, 66.217, -162.440
187.545, 66.283, -162.981
190.273, 66.336, -162.884
193.041, 66.394, -163.608
195.849, 66.361, -163.975
198.697, 66.375, -164.250
201.587, 66.353, -165.590
204.520, 66.329, -165.624
207.494, 66.330, -164.972
210.512, 66.281, -164.802
213.574, 66.316, -165.346
216.681, 66.359, -166.726
219.833, 66.481, -166.084
223.030, 66.476, -165.904
226.274, 66.571, -166.273
229.565, 66.442, -167.990
232.905, 66.549, -167.074
236.292, 66.532, -167.579
239.729, 66.616, -168.151
243.216, 66.441, -169.361
246.754, 66.617, -169.144
250.343, 66.611, -168.960
253.984, 66.544, -169.154
257.678, 66.546, -169.861
261.426, 66.534, -169.639
265.229, 66.585, -170.216
269.087, 66.547, -170.778
273.001, 66.604, -170.454
276.972, 66.573, -170.935
281.000, 66.712, -172.058
285.088, 66.582, -172.109
289.234, 66.528, -172.140
293.441, 66.540, -173.526
297.710, 66.493, -174.024
302.040, 66.346, -174.377
306.433, 66.329, -174.398
310.890, 66.218, -173.953
315.412, 66.152, -173.478
320.000, 66.310, -174.019
324.655, 66.226, -173.260
329.377, 66.273, -173.920
334.168, 66.281, -173.757
339.028, 66.222, -173.413
343.959, 66.317, -174.664
348.962, 66.260, -174.371
354.038, 66.281, -175.137
359.188, 66.280, -174.920
364.412, 66.312, -175.358
369.713, 66.188, -175.497
375.090, 66.178, -176.155
380.546, 66.260, -176.027
386.081, 66.253, -176.164
391.697, 66.199, -176.623
397.395, 66.315, -176.959
403.175, 66.231, -177.160
409.039, 66.191, -177.676
414.989, 66.217, -178.486
421.025, 66.042, -178.504
427.149, 66.065, -178.789
433.362, 65.876, -179.751
439.665, 65.861, -179.506
446.060, 65.663, 179.883
452.548, 65.646, 179.766
459.131, 65.635, -179.735
465.809, 65.392, -179.197
472.584, 65.456, -179.458
479.458, 65.205, -179.182
486.432, 65.186, -178.335
493.507, 65.171, -177.035
500.686, 65.260, -176.815
507.968, 65.245, -177.211
515.357, 65.241, -177.113
522.853, 65.252, -176.540
530.458, 65.252, -175.778
538.174, 65.387, -175.972
546.002, 65.275, -177.079
553.943, 65.192, -177.293
562.001, 65.262, -176.769
570.175, 65.388, -177.095
578.469, 65.328, -177.081
586.883, 65.368, -177.657
595.419, 65.237, -177.522
604.080, 65.264, -176.938
612.866, 65.117, -176.749
621.780, 65.286, -178.860
630.824, 65.210, -178.145
640.000, 65.033, -177.454
649.309, 65.013, -178.287
658.753, 65.059, -177.853
668.335, 64.887, -178.317
678.056, 64.855, -178.858
687.919, 64.889, -178.883
697.925, 64.717, -178.643
708.076, 64.717, -178.440
718.376, 64.624, -179.660
728.825, 64.470, -178.510
739.426, 64.471, -178.847
750.181, 64.406, -178.728
761.093, 64.271, -178.408
772.163, 64.101, -178.750
783.394, 63.953, -178.748
794.789, 64.118, -178.315
806.349, 63.759, -178.969
818.078, 63.670, -177.598
829.977, 63.621, -177.139
842.050, 63.482, -176.722
854.297, 63.440, -176.338
866.724, 63.322, -175.933
879.330, 63.128, -175.241
892.120, 63.036, -174.394
905.097, 62.947, -174.536
918.262, 62.757, -173.355
931.618, 62.650, -173.231
945.169, 62.674, -172.928
958.917, 62.311, -171.296
972.864, 62.266, -169.183
987.015, 62.046, -168.757
1001.371, 61.993, -166.836
1015.937, 61.834, -164.941
1030.714, 61.602, -162.409
1045.706, 61.699, -158.945
1060.916, 62.008, -156.212
1076.347, 62.491, -156.096
1092.003, 62.575, -157.605
1107.887, 62.535, -159.253
1124.001, 62.103, -157.992
1140.350, 62.033, -155.206
1156.937, 61.963, -154.371
1173.765, 61.961, -153.990
1190.838, 61.605, -152.145
1208.159, 61.546, -150.432
1225.732, 61.281, -145.942
1243.561, 61.055, -142.320
1261.649, 61.525, -137.894
1280.000, 61.702, -135.216
1298.618, 61.950, -132.165
1317.507, 62.453, -128.993
1336.670, 62.842, -126.598
1356.113, 63.334, -124.328
1375.838, 63.849, -123.079
1395.850, 64.294, -122.292
1416.153, 64.902, -122.045
1436.751, 65.343, -122.378
1457.649, 65.615, -122.931
1478.851, 66.065, -124.124
1500.362, 66.148, -125.034
1522.185, 66.374, -124.334
1544.326, 66.545, -124.393
1566.789, 66.658, -125.049
1589.578, 66.766, -124.153
1612.699, 67.112, -123.515
1636.156, 67.243, -123.027
1659.955, 67.463, -121.895
1684.099, 67.820, -120.907
1708.595, 68.063, -120.319
1733.447, 68.415, -119.751
1758.661, 68.961, -119.548
1784.241, 69.285, -119.895
1810.193, 69.602, -120.040
1836.523, 70.035, -120.835
1863.236, 70.347, -121.508
1890.338, 70.704, -121.616
1917.833, 71.108, -122.357
1945.729, 71.482, -123.387
1974.030, 71.887, -124.506
2002.743, 72.263, -126.294
2031.873, 72.633, -127.930
2061.428, 72.934, -130.318
2091.412, 73.354, -132.026
2121.832, 73.552, -134.203
2152.695, 73.793, -136.916
2184.007, 73.970, -139.699
2215.774, 74.141, -142.594
2248.003, 74.270, -145.266
2280.701, 74.292, -147.781
2313.874, 74.235, -150.976
2347.530, 74.402, -152.402
2381.676, 74.317, -155.091
2416.318, 74.295, -157.380
2451.464, 74.198, -159.507
2487.122, 74.120, -161.468
2523.298, 74.064, -163.678
2560.000, 73.895, -165.961
2597.236, 73.699, -168.135
2635.014, 73.496, -169.737
2673.341, 73.277, -170.496
2712.226, 73.058, -171.119
2751.676, 72.832, -172.254
2791.700, 72.601, -173.176
2832.306, 72.426, -173.590
2873.503, 72.173, -173.539
2915.299, 72.028, -173.818
2957.703, 71.928, -173.747
3000.724, 71.838, -173.603
3044.370, 71.695, -173.698
3088.652, 71.523, -173.467
3133.577, 71.389, -173.039
3179.156, 71.283, -172.431
3225.398, 71.244, -171.582
3272.312, 71.212, -171.086
3319.909, 71.201, -170.470
3368.198, 71.204, -170.007
3417.190, 71.238, -169.431
3466.894, 71.277, -167.988
3517.321, 71.372, -167.772
3568.482, 71.492, -167.711
3620.387, 71.466, -167.829
3673.046, 71.457, -165.972
3726.472, 71.887, -163.981
3780.675, 72.462, -164.112
3835.666, 72.900, -166.655
3891.457, 73.075, -169.906
3948.060, 73.004, -172.340
4005.486, 72.871, -173.210
4063.747, 72.936, -173.580
4122.855, 73.041, -175.029
4182.824, 73.036, -176.954
4243.664, 72.939, -178.658
4305.390, 72.764, -179.733
4368.013, 72.568, 179.715
4431.547, 72.395, 179.638
4496.005, 72.248, -179.775
4561.401, 72.203, -178.504
4627.749, 72.370, -177.102
4695.061, 72.663, -176.865
4763.352, 72.856, -177.430
4832.637, 73.096, -177.752
4902.929, 73.423, -178.488
4974.244, 73.768, 179.410
5046.596, 73.959, 176.395
5120.000, 73.965, 173.240
5194.472, 73.795, 170.850
5270.027, 73.658, 169.898
5346.682, 73.668, 169.083
5424.451, 73.756, 167.773
5503.352, 73.870, 165.967
5583.399, 73.971, 163.577
5664.612, 73.987, 160.483
5747.006, 73.899, 157.107
5830.598, 73.667, 153.766
5915.406, 73.326, 150.877
6001.447, 72.909, 148.593
6088.740, 72.438, 147.103
6177.303, 71.973, 146.446
6267.154, 71.569, 146.526
6358.312, 71.249, 147.182
6450.796, 71.035, 148.145
6544.625, 70.934, 149.104
6639.818, 70.968, 150.009
6736.397, 71.114, 150.354
6834.380, 71.356, 150.072
6933.789, 71.668, 148.576
7034.643, 71.999, 145.702
7136.964, 72.187, 141.254
7240.773, 72.153, 136.096
7346.093, 71.919, 131.000
7452.944, 71.554, 126.360
7561.350, 71.148, 122.094
7671.332, 70.688, 117.347
7782.915, 70.065, 112.428
7896.120, 69.275, 107.608
8010.971, 68.303, 103.513
8127.493, 67.225, 100.578
8245.711, 66.147, 98.596
8365.647, 65.035, 96.984
8487.328, 63.945, 95.113
8610.779, 62.681, 92.892
8736.026, 61.386, 90.434
8863.095, 59.204, 87.003
8992.011, 56.349, 86.893
9122.803, 52.395, 93.720
9255.497, 47.759, 123.572
9390.121, 49.161, 171.076
9526.704, 52.869, -173.871
9665.273, 54.930, -171.161
9805.857, 56.033, -168.381
9948.487, 56.945, -163.923
10093.191, 58.138, -159.004
10240.000, 59.691, -156.849
10388.944, 61.190, -159.205
10540.055, 62.185, -164.469
10693.363, 62.685, -169.734
10848.902, 62.967, -174.183
11006.703, 63.102, -178.151
11166.799, 63.216, 178.428
11329.224, 63.275, 174.414
11494.012, 63.240, 170.230
11661.195, 63.122, 165.648
11830.812, 62.854, 160.365
12002.895, 62.301, 154.655
12177.480, 61.457, 150.312
12354.606, 60.667, 147.024
12534.309, 59.852, 142.254
12716.624, 58.431, 136.670
12901.592, 56.588, 132.932
13089.250, 53.647, 131.701
13279.637, 50.659, 152.471
13472.794, 52.291, 167.048
13668.760, 52.914, 157.310
13867.577, 50.496, 140.392
14069.285, 42.781, 120.849
14273.928, 37.958, -65.997
14481.547, 48.285, -81.062
14692.186, 52.070, -89.920
14905.889, 54.040, -95.985
15122.700, 55.095, -98.958
15342.664, 56.054, -96.069
15565.829, 58.064, -92.570
15792.239, 60.409, -97.145
16021.942, 62.220, -106.150
16254.986, 63.495, -127.239
16491.422, 62.412, -128.122
16731.295, 63.109, -137.338
16974.656, 63.088, -146.302
17221.559, 63.004, -154.913
17472.053, 62.548, -165.678
17726.189, 61.535, -176.248
17984.021, 59.786, 174.646
18245.605, 57.271, 172.744
18510.994, 55.639, -176.403
18780.242, 56.901, -173.330
19053.408, 56.466, 172.420
19330.547, 54.185, 165.665
19611.715, 51.966, 164.647
19896.975, 49.270, 163.189
