* Measurement data measured by REW V5.19
* Source: ASIO MOTU M Series, In 1
* Format: 1M Log Swept Sine, 2 sweeps at -3.0 dBFS  With no timing reference
* Dated: 23 Sep, 2020 8:15:25 PM
* REW Settings:
*  C-weighting compensation: Off
*  Target level: 75.0 dB
* Note: ; 
* Measurement: Sep 23 20:15:25
* Smoothing: None
* Frequency Step: 1/48 octave
* Start Frequency: 10.1 Hz
*
* Freq(Hz), SPL(dB), Phase(degrees)
10.145, 76.937, -123.166
10.293, 76.969, -124.148
10.443, 77.001, -125.233
10.595, 77.034, -126.213
10.749, 77.067, -127.202
10.905, 77.097, -128.205
11.064, 77.125, -129.216
11.225, 77.149, -130.231
11.388, 77.168, -131.245
11.554, 77.182, -132.241
11.722, 77.192, -133.218
11.892, 77.197, -134.154
12.065, 77.200, -135.049
12.241, 77.204, -135.893
12.419, 77.209, -136.692
12.599, 77.219, -137.453
12.782, 77.235, -138.191
12.968, 77.259, -138.927
13.157, 77.287, -139.680
13.348, 77.321, -140.468
13.543, 77.354, -141.300
13.740, 77.384, -142.179
13.939, 77.407, -143.087
14.142, 77.421, -144.005
14.348, 77.423, -144.904
14.557, 77.419, -145.749
14.768, 77.408, -146.525
14.983, 77.398, -147.214
15.201, 77.394, -147.834
15.422, 77.399, -148.399
15.646, 77.418, -148.965
15.874, 77.446, -149.561
16.105, 77.482, -150.223
16.339, 77.518, -150.965
16.577, 77.548, -151.771
16.818, 77.569, -152.622
17.063, 77.579, -153.474
17.311, 77.581, -154.295
17.563, 77.580, -155.077
17.818, 77.580, -155.820
18.077, 77.584, -156.554
18.340, 77.592, -157.312
18.607, 77.599, -158.109
18.877, 77.602, -158.950
19.152, 77.596, -159.816
19.431, 77.580, -160.669
19.713, 77.557, -161.483
20.000, 77.531, -162.249
20.291, 77.505, -162.975
20.586, 77.480, -163.681
20.885, 77.455, -164.378
21.189, 77.426, -165.060
21.497, 77.394, -165.696
21.810, 77.362, -166.258
22.127, 77.339, -166.748
22.449, 77.330, -167.206
22.776, 77.338, -167.699
23.107, 77.355, -168.286
23.443, 77.372, -168.983
23.784, 77.378, -169.757
24.130, 77.372, -170.543
24.481, 77.358, -171.293
24.837, 77.343, -172.002
25.198, 77.334, -172.709
25.565, 77.326, -173.460
25.937, 77.313, -174.267
26.314, 77.287, -175.086
26.697, 77.251, -175.855
27.085, 77.215, -176.544
27.479, 77.189, -177.207
27.879, 77.172, -177.947
28.284, 77.146, -178.824
28.696, 77.091, -179.768
29.113, 77.003, 179.405
29.537, 76.908, 178.831
29.966, 76.841, 178.387
30.402, 76.799, 177.751
30.844, 76.717, 176.756
31.293, 76.520, 175.829
31.748, 76.220, 175.895
32.210, 75.994, 177.600
32.678, 76.081, -179.959
33.154, 76.483, -178.840
33.636, 76.914, 179.864
34.125, 77.108, 177.024
34.621, 77.020, 174.317
35.125, 76.806, 172.922
35.636, 76.668, 172.584
36.154, 76.653, 172.164
36.680, 76.644, 171.212
37.214, 76.566, 170.205
37.755, 76.469, 169.568
38.304, 76.407, 169.124
38.861, 76.363, 168.589
39.427, 76.314, 168.025
40.000, 76.269, 167.498
40.582, 76.231, 166.925
41.172, 76.194, 166.346
41.771, 76.184, 165.725
42.379, 76.194, 164.683
42.995, 76.131, 163.157
43.620, 75.957, 161.900
44.255, 75.783, 161.415
44.898, 75.711, 161.073
45.552, 75.669, 160.199
46.214, 75.566, 159.080
46.886, 75.416, 158.207
47.568, 75.273, 157.686
48.260, 75.187, 157.324
48.962, 75.154, 156.548
49.674, 75.058, 155.217
50.397, 74.862, 154.183
51.130, 74.694, 153.698
51.874, 74.570, 153.002
52.628, 74.399, 152.190
53.394, 74.218, 151.678
54.170, 74.058, 151.198
54.958, 73.908, 150.724
55.758, 73.771, 149.904
56.569, 73.524, 148.885
57.391, 73.264, 148.735
58.226, 73.143, 148.059
59.073, 72.822, 146.368
59.932, 72.373, 146.456
60.804, 72.220, 146.792
61.688, 72.001, 145.362
62.586, 71.580, 144.535
63.496, 71.186, 144.415
64.420, 70.779, 144.777
65.357, 70.482, 145.548
66.307, 70.179, 145.482
67.272, 69.688, 145.693
68.250, 69.142, 147.245
69.243, 68.712, 149.756
70.250, 68.390, 151.944
71.272, 67.960, 153.907
72.309, 67.482, 157.191
73.360, 67.119, 160.979
74.427, 66.703, 166.195
75.510, 66.752, 173.301
76.608, 67.147, 179.418
77.723, 68.109, -175.251
78.853, 69.346, -175.224
80.000, 70.359, -179.439
81.164, 70.695, 172.577
82.344, 70.163, 166.182
83.542, 69.290, 162.165
84.757, 67.984, 161.763
85.990, 66.799, 164.619
87.241, 65.405, 172.889
88.510, 65.362, -176.048
89.797, 65.555, -166.703
91.103, 66.531, -162.417
92.428, 66.819, -159.336
93.773, 67.176, -158.891
95.137, 66.961, -152.978
96.520, 67.662, -147.669
97.924, 68.521, -142.991
99.349, 69.791, -141.573
100.794, 70.366, -142.899
102.260, 71.442, -140.023
103.747, 72.271, -141.975
105.256, 73.189, -143.572
106.787, 73.682, -146.957
108.340, 73.982, -150.784
109.916, 74.008, -153.574
111.515, 73.965, -154.644
113.137, 74.124, -153.526
114.783, 74.563, -152.910
116.452, 75.152, -153.404
118.146, 75.551, -155.068
119.865, 75.980, -157.170
121.608, 76.321, -160.354
123.377, 76.625, -162.699
125.171, 76.792, -165.629
126.992, 76.946, -168.058
128.839, 77.086, -171.058
130.713, 77.233, -173.575
132.615, 77.274, -175.831
134.543, 77.232, -178.195
136.500, 77.280, 179.747
138.486, 77.338, 177.432
140.500, 77.298, 175.014
142.544, 77.240, 172.880
144.617, 77.194, 171.131
146.721, 77.061, 168.432
148.855, 76.933, 166.099
151.020, 76.783, 163.767
153.217, 76.521, 161.328
155.445, 76.179, 159.715
157.706, 75.754, 158.847
160.000, 75.326, 158.507
162.327, 75.048, 159.547
164.688, 74.820, 160.075
167.084, 74.735, 160.880
169.514, 74.610, 161.657
171.980, 74.614, 162.748
174.481, 74.747, 163.251
177.019, 74.899, 162.723
179.594, 75.110, 161.486
182.206, 75.193, 160.088
184.856, 75.078, 158.255
187.545, 75.009, 156.758
190.273, 74.894, 155.417
193.041, 74.770, 154.184
195.849, 74.574, 153.513
198.697, 74.394, 153.009
201.587, 74.213, 152.429
204.520, 74.093, 151.983
207.494, 74.000, 152.029
210.512, 73.917, 151.303
213.574, 73.799, 150.828
216.681, 73.657, 150.135
219.833, 73.568, 149.903
223.030, 73.415, 149.160
226.274, 73.251, 148.627
229.565, 73.075, 148.138
232.905, 72.929, 147.724
236.292, 72.745, 147.222
239.729, 72.592, 146.682
243.216, 72.374, 146.503
246.754, 72.175, 145.966
250.343, 71.961, 144.896
253.984, 71.516, 144.056
257.678, 70.961, 143.863
261.426, 69.589, 147.818
265.229, 70.425, 158.348
269.087, 71.181, 157.222
273.001, 71.334, 155.180
276.972, 71.238, 153.823
281.000, 71.083, 152.979
285.088, 70.819, 153.724
289.234, 70.890, 155.070
293.441, 70.973, 154.448
297.710, 70.882, 153.219
302.040, 70.702, 152.014
306.433, 70.159, 151.383
310.890, 69.427, 153.270
315.412, 69.106, 160.006
320.000, 69.604, 165.304
324.655, 70.220, 166.352
329.377, 70.507, 166.174
334.168, 70.724, 165.435
339.028, 70.894, 165.307
343.959, 71.011, 164.946
348.962, 71.122, 164.679
354.038, 71.182, 164.183
359.188, 71.230, 164.210
364.412, 71.315, 164.590
369.713, 71.520, 164.829
375.090, 71.767, 164.335
380.546, 71.981, 163.134
386.081, 72.156, 161.705
391.697, 72.322, 159.611
397.395, 72.367, 157.128
403.175, 72.280, 154.340
409.039, 72.025, 151.092
414.989, 71.437, 147.896
421.025, 70.443, 147.679
427.149, 69.613, 152.434
433.362, 69.575, 158.482
439.665, 69.836, 161.319
446.060, 69.920, 162.932
452.548, 70.055, 166.395
459.131, 70.627, 169.770
465.809, 71.403, 170.502
472.584, 72.071, 169.211
479.458, 72.613, 166.866
486.432, 73.008, 163.858
493.507, 73.248, 160.514
500.686, 73.380, 157.277
507.968, 73.445, 154.244
515.357, 73.447, 151.205
522.853, 73.400, 148.192
530.458, 73.295, 145.228
538.174, 73.129, 142.412
546.002, 72.905, 139.705
553.943, 72.641, 137.262
562.001, 72.337, 135.020
570.175, 71.986, 132.960
578.469, 71.627, 131.562
586.883, 71.238, 129.895
595.419, 70.810, 128.770
604.080, 70.386, 127.804
612.866, 69.924, 127.231
621.780, 69.447, 127.096
630.824, 69.024, 127.345
640.000, 68.575, 127.810
649.309, 68.148, 128.720
658.753, 67.743, 130.121
668.335, 67.443, 132.040
678.056, 67.231, 133.647
687.919, 67.043, 134.998
697.925, 66.836, 136.457
708.076, 66.664, 137.907
718.376, 66.477, 138.775
728.825, 66.224, 140.384
739.426, 65.909, 143.123
750.181, 65.768, 147.557
761.093, 66.039, 152.469
772.163, 66.699, 155.329
783.394, 67.437, 155.206
794.789, 67.974, 153.050
806.349, 68.257, 149.815
818.078, 68.293, 146.595
829.977, 68.151, 143.958
842.050, 67.962, 141.919
854.297, 67.727, 140.414
866.724, 67.459, 139.092
879.330, 67.198, 138.238
892.120, 66.945, 137.641
905.097, 66.666, 137.001
918.262, 66.391, 136.670
931.618, 66.109, 136.588
945.169, 65.840, 136.440
958.917, 65.594, 136.315
972.864, 65.307, 136.288
987.015, 65.013, 136.446
1001.371, 64.689, 136.691
1015.937, 64.372, 137.446
1030.714, 64.043, 137.929
1045.706, 63.763, 139.104
1060.916, 63.499, 140.437
1076.347, 63.295, 141.462
1092.003, 63.043, 142.700
1107.887, 62.875, 144.171
1124.001, 62.702, 145.134
1140.350, 62.595, 145.877
1156.937, 62.415, 146.719
1173.765, 62.182, 146.991
1190.838, 61.910, 147.139
1208.159, 61.578, 148.751
1225.732, 61.192, 150.033
1243.561, 60.879, 152.038
1261.649, 60.641, 154.163
1280.000, 60.395, 156.363
1298.618, 60.099, 158.730
1317.507, 59.863, 161.564
1336.670, 59.660, 164.690
1356.113, 59.521, 168.327
1375.838, 59.493, 172.192
1395.850, 59.680, 175.759
1416.153, 59.932, 178.191
1436.751, 60.076, 179.337
1457.649, 60.077, -179.312
1478.851, 59.982, -177.426
1500.362, 59.928, -175.155
1522.185, 59.930, -171.969
1544.326, 60.101, -169.405
1566.789, 60.150, -167.807
1589.578, 59.911, -164.824
1612.699, 60.065, -159.288
1636.156, 60.531, -155.157
1659.955, 61.078, -152.161
1684.099, 61.670, -149.764
1708.595, 62.270, -148.227
1733.447, 62.935, -147.530
1758.661, 63.539, -148.043
1784.241, 64.045, -149.193
1810.193, 64.442, -150.865
1836.523, 64.769, -152.657
1863.236, 64.949, -154.860
1890.338, 64.999, -156.491
1917.833, 65.039, -157.770
1945.729, 65.043, -158.961
1974.030, 64.962, -159.878
2002.743, 64.897, -160.232
2031.873, 64.803, -159.637
2061.428, 64.990, -159.499
2091.412, 65.028, -160.249
2121.832, 65.033, -160.623
2152.695, 65.024, -161.308
2184.007, 64.976, -162.007
2215.774, 64.854, -162.720
2248.003, 64.625, -163.342
2280.701, 64.275, -162.655
2313.874, 64.130, -160.324
2347.530, 64.206, -159.457
2381.676, 64.063, -159.280
2416.318, 63.742, -158.117
2451.464, 63.728, -153.732
2487.122, 64.033, -152.801
2523.298, 64.128, -152.102
2560.000, 64.184, -151.411
2597.236, 64.194, -150.454
2635.014, 64.223, -149.413
2673.341, 64.271, -148.304
2712.226, 64.314, -147.224
2751.676, 64.373, -146.119
2791.700, 64.416, -145.187
2832.306, 64.447, -144.076
2873.503, 64.466, -142.937
2915.299, 64.458, -141.679
2957.703, 64.449, -139.966
3000.724, 64.476, -137.967
3044.370, 64.554, -135.913
3088.652, 64.651, -133.776
3133.577, 64.744, -131.511
3179.156, 64.896, -128.966
3225.398, 65.083, -126.203
3272.312, 65.374, -123.267
3319.909, 65.749, -120.522
3368.198, 66.185, -118.212
3417.190, 66.681, -116.124
3466.894, 67.237, -114.527
3517.321, 67.793, -113.462
3568.482, 68.315, -112.833
3620.387, 68.849, -112.265
3673.046, 69.411, -112.281
3726.472, 69.938, -113.039
3780.675, 70.179, -114.339
3835.666, 70.430, -113.065
3891.457, 70.813, -112.521
3948.060, 71.112, -110.849
4005.486, 71.655, -108.164
4063.747, 72.513, -105.681
4122.855, 73.572, -104.861
4182.824, 74.658, -105.071
4243.664, 75.955, -105.654
4305.390, 77.575, -109.268
4368.013, 79.040, -117.412
4431.547, 80.025, -128.090
4496.005, 80.588, -139.747
4561.401, 80.662, -152.650
4627.749, 79.989, -163.742
4695.061, 79.309, -172.443
4763.352, 78.329, 179.285
4832.637, 76.973, 173.201
4902.929, 75.438, 170.116
4974.244, 73.872, 170.543
5046.596, 72.433, 173.984
5120.000, 71.198, -178.843
5194.472, 70.510, -168.413
5270.027, 70.718, -156.691
5346.682, 71.702, -148.130
5424.451, 72.927, -142.889
5503.352, 74.494, -140.979
5583.399, 75.836, -145.391
5664.612, 76.322, -150.502
5747.006, 76.576, -152.525
5830.598, 77.101, -153.404
5915.406, 77.730, -155.451
6001.447, 78.367, -157.761
6088.740, 79.222, -160.795
6177.303, 80.037, -166.677
6267.154, 80.536, -173.812
6358.312, 80.810, 179.492
6450.796, 81.123, 173.116
6544.625, 81.468, 165.394
6639.818, 81.626, 155.720
6736.397, 81.386, 144.648
6834.380, 80.597, 133.772
6933.789, 79.305, 125.455
7034.643, 77.877, 120.975
7136.964, 76.585, 119.766
7240.773, 75.687, 120.428
7346.093, 75.184, 120.592
7452.944, 74.784, 118.886
7561.350, 74.209, 116.156
7671.332, 73.450, 114.102
7782.915, 72.618, 113.185
7896.120, 71.875, 113.869
8010.971, 71.283, 115.781
8127.493, 71.203, 117.468
8245.711, 71.302, 116.409
8365.647, 71.165, 113.181
8487.328, 70.965, 109.617
8610.779, 70.636, 104.472
8736.026, 70.261, 96.997
8863.095, 68.567, 88.754
8992.011, 66.613, 86.058
9122.803, 64.709, 87.880
9255.497, 63.082, 92.616
9390.121, 61.796, 99.102
9526.704, 61.062, 106.842
9665.273, 60.496, 109.593
9805.857, 58.976, 113.397
9948.487, 57.215, 128.345
10093.191, 57.464, 151.999
10240.000, 61.300, 171.698
10388.944, 65.288, 157.223
10540.055, 65.798, 133.603
10693.363, 64.194, 120.685
10848.902, 62.974, 114.539
11006.703, 61.508, 107.200
11166.799, 59.270, 101.077
11329.224, 55.843, 101.125
11494.012, 52.078, 120.733
11661.195, 52.965, 150.045
11830.812, 54.712, 156.655
12002.895, 55.740, 158.839
12177.480, 56.749, 155.739
12354.606, 56.887, 146.044
12534.309, 55.885, 135.641
12716.624, 53.629, 122.164
12901.592, 48.636, 104.655
13089.250, 36.283, 32.714
13279.637, 48.905, -71.016
13472.794, 55.479, -93.477
13668.760, 59.227, -114.358
13867.577, 60.807, -137.175
14069.285, 61.135, -158.550
14273.928, 59.821, 176.408
14481.547, 55.416, 150.463
14692.186, 42.267, 128.646
14905.889, 48.437, -58.504
15122.700, 56.056, -73.756
15342.664, 59.509, -85.600
15565.829, 61.651, -96.181
15792.239, 63.276, -104.941
16021.942, 64.884, -113.800
16254.986, 66.613, -126.846
16491.422, 67.653, -149.144
16731.295, 66.252, -174.832
16974.656, 62.625, 175.191
17221.559, 60.371, -177.982
17472.053, 59.858, -172.067
17726.189, 59.617, -171.456
17984.021, 59.151, -170.877
18245.605, 59.012, -169.904
18510.994, 58.830, -171.390
18780.242, 59.048, -172.155
19053.408, 58.955, -179.157
19330.547, 58.308, 173.927
19611.715, 57.352, 166.166
19896.975, 55.529, 160.345
