* Measurement data measured by REW V5.18
* Source: ASIO MOTU M Series, In 1
* Format:   1M Log Swept Sine, 2 sweeps at -10.0 dBFS  With no timing reference
* Dated: 1 Sep, 2020 5:22:02 PM
* REW Settings:
*  C-weighting compensation: Off
*  Target level: 75.0 dB
* Note: ; 
* Measurement: Sep 1 17:22:02
* Smoothing: None
* Frequency Step: 1/48 octave
* Start Frequency: 10.0 Hz
*
* Freq(Hz), SPL(dB), Phase(degrees)
10.145, 52.112, -42.061
10.293, 52.610, -41.752
10.443, 53.104, -42.626
10.595, 53.558, -44.105
10.749, 53.928, -45.941
10.905, 54.227, -48.179
11.064, 54.453, -50.410
11.225, 54.599, -52.697
11.388, 54.694, -54.790
11.554, 54.730, -56.633
11.722, 54.740, -58.182
11.892, 54.738, -59.337
12.065, 54.738, -60.179
12.241, 54.770, -60.731
12.419, 54.831, -61.067
12.599, 54.940, -61.364
12.782, 55.088, -61.639
12.968, 55.268, -62.068
13.157, 55.475, -62.637
13.348, 55.691, -63.412
13.543, 55.913, -64.374
13.740, 56.128, -65.516
13.939, 56.331, -66.817
14.142, 56.517, -68.264
14.348, 56.678, -69.812
14.557, 56.810, -71.451
14.768, 56.905, -73.089
14.983, 56.961, -74.691
15.201, 56.976, -76.127
15.422, 56.962, -77.318
15.646, 56.925, -78.168
15.874, 56.897, -78.636
16.105, 56.893, -78.748
16.339, 56.944, -78.610
16.577, 57.055, -78.451
16.818, 57.226, -78.408
17.063, 57.433, -78.716
17.311, 57.648, -79.380
17.563, 57.848, -80.404
17.818, 58.006, -81.655
18.077, 58.121, -82.970
18.340, 58.195, -84.232
18.607, 58.240, -85.312
18.877, 58.281, -86.170
19.152, 58.335, -86.856
19.431, 58.416, -87.445
19.713, 58.528, -88.067
20.000, 58.661, -88.844
20.291, 58.802, -89.823
20.586, 58.933, -91.006
20.885, 59.038, -92.334
21.189, 59.107, -93.691
21.497, 59.141, -94.921
21.810, 59.155, -95.902
22.127, 59.172, -96.579
22.449, 59.218, -96.998
22.776, 59.310, -97.311
23.107, 59.448, -97.722
23.443, 59.608, -98.390
23.784, 59.758, -99.331
24.130, 59.870, -100.415
24.481, 59.940, -101.444
24.837, 59.981, -102.246
25.198, 60.021, -102.755
25.565, 60.090, -103.046
25.937, 60.202, -103.308
26.314, 60.351, -103.750
26.697, 60.511, -104.510
27.085, 60.648, -105.591
27.479, 60.737, -106.850
27.879, 60.770, -108.057
28.284, 60.768, -108.993
28.696, 60.769, -109.579
29.113, 60.809, -109.946
29.537, 60.895, -110.343
29.966, 61.007, -110.933
30.402, 61.119, -111.692
30.844, 61.223, -112.508
31.293, 61.328, -113.328
31.748, 61.441, -114.198
32.210, 61.551, -115.175
32.678, 61.645, -116.249
33.154, 61.710, -117.355
33.636, 61.736, -118.362
34.125, 61.733, -119.027
34.621, 61.751, -119.171
35.125, 61.869, -119.180
35.636, 62.071, -119.809
36.154, 62.213, -121.452
36.680, 62.157, -123.191
37.214, 61.976, -123.651
37.755, 61.947, -122.783
38.304, 62.170, -122.469
38.861, 62.375, -123.861
39.427, 62.331, -125.639
40.000, 62.179, -125.978
40.582, 62.206, -125.327
41.172, 62.386, -125.619
41.771, 62.480, -126.811
42.379, 62.483, -127.667
42.995, 62.540, -128.439
43.620, 62.554, -129.871
44.255, 62.393, -130.929
44.898, 62.271, -130.421
45.552, 62.396, -129.809
46.214, 62.588, -130.364
46.886, 62.731, -131.232
47.568, 62.921, -132.621
48.260, 62.936, -135.195
48.962, 62.610, -136.325
49.674, 62.499, -134.381
50.397, 62.864, -133.896
51.130, 62.986, -136.189
51.874, 62.751, -137.040
52.628, 62.678, -136.593
53.394, 62.543, -137.079
54.170, 62.257, -135.535
54.958, 62.461, -133.135
55.758, 62.766, -134.273
56.569, 62.652, -135.842
57.391, 62.578, -135.597
58.226, 62.704, -136.285
59.073, 62.656, -137.963
59.932, 62.509, -138.201
60.804, 62.627, -138.238
61.688, 62.622, -139.995
62.586, 62.398, -139.809
63.496, 62.444, -139.205
64.420, 62.298, -138.362
65.357, 62.661, -135.986
66.307, 62.899, -139.143
67.272, 62.342, -138.052
68.250, 62.785, -135.160
69.243, 62.947, -137.094
70.250, 63.057, -136.910
71.272, 63.021, -139.182
72.309, 62.841, -137.131
73.360, 63.314, -137.775
74.427, 63.127, -139.225
75.510, 63.290, -137.844
76.608, 63.446, -139.057
77.723, 63.468, -138.665
78.853, 63.705, -139.162
80.000, 63.691, -140.137
81.164, 63.744, -140.027
82.344, 63.788, -140.273
83.542, 63.928, -140.420
84.757, 63.925, -141.057
85.990, 64.086, -140.674
87.241, 64.210, -142.016
88.510, 64.215, -142.213
89.797, 64.399, -143.047
91.103, 64.288, -144.039
92.428, 64.453, -143.284
93.773, 64.541, -145.147
95.137, 64.391, -144.764
96.520, 64.603, -144.381
97.924, 64.630, -145.567
99.349, 64.591, -145.272
100.794, 64.764, -145.705
102.260, 64.642, -146.293
103.747, 64.877, -146.342
105.256, 64.765, -148.160
106.787, 64.794, -148.420
108.340, 64.660, -148.789
109.916, 64.883, -149.239
111.515, 64.802, -149.696
113.137, 64.881, -149.935
114.783, 64.891, -150.290
116.452, 64.950, -149.996
118.146, 64.948, -150.749
119.865, 64.990, -151.284
121.608, 64.956, -151.534
123.377, 65.041, -152.000
125.171, 65.031, -151.890
126.992, 65.031, -152.410
128.839, 65.100, -152.383
130.713, 65.087, -153.492
132.615, 65.105, -153.003
134.543, 65.127, -153.809
136.500, 65.133, -153.809
138.486, 65.142, -154.260
140.500, 65.207, -154.556
142.544, 65.225, -154.498
144.617, 65.188, -155.126
146.721, 65.210, -155.058
148.855, 65.252, -155.397
151.020, 65.335, -155.836
153.217, 65.271, -156.689
155.445, 65.475, -156.453
157.706, 65.400, -156.635
160.000, 65.403, -156.735
162.327, 65.313, -157.096
164.688, 65.338, -154.738
167.084, 65.475, -158.004
169.514, 65.508, -157.971
171.980, 65.431, -158.394
174.481, 65.461, -158.979
177.019, 65.443, -158.827
179.594, 65.490, -158.981
182.206, 65.485, -159.544
184.856, 65.501, -159.547
187.545, 65.534, -159.496
190.273, 65.527, -159.771
193.041, 65.502, -160.099
195.849, 65.561, -160.120
198.697, 65.584, -160.552
201.587, 65.512, -160.896
204.520, 65.527, -161.508
207.494, 65.349, -161.503
210.512, 65.596, -161.733
213.574, 65.608, -161.932
216.681, 65.597, -161.583
219.833, 65.531, -162.028
223.030, 65.570, -162.636
226.274, 65.654, -161.894
229.565, 65.639, -161.948
232.905, 65.663, -162.835
236.292, 65.615, -162.861
239.729, 65.645, -162.686
243.216, 65.561, -163.370
246.754, 65.685, -163.101
250.343, 65.707, -163.281
253.984, 65.612, -163.330
257.678, 65.691, -163.878
261.426, 65.725, -164.238
265.229, 65.621, -164.284
269.087, 65.656, -163.950
273.001, 65.713, -164.507
276.972, 65.735, -164.531
281.000, 65.654, -164.612
285.088, 65.652, -164.555
289.234, 65.680, -164.675
293.441, 65.701, -164.943
297.710, 65.708, -164.960
302.040, 65.687, -165.551
306.433, 65.719, -165.482
310.890, 65.752, -164.817
315.412, 65.726, -165.772
320.000, 65.667, -165.652
324.655, 65.636, -166.474
329.377, 65.708, -166.696
334.168, 65.681, -166.108
339.028, 65.687, -166.147
343.959, 65.798, -166.541
348.962, 65.776, -167.023
354.038, 65.756, -166.673
359.188, 65.688, -166.607
364.412, 65.603, -166.481
369.713, 65.694, -166.628
375.090, 65.659, -166.564
380.546, 65.691, -166.378
386.081, 65.659, -166.499
391.697, 65.790, -167.786
397.395, 65.685, -166.868
403.175, 65.611, -166.612
409.039, 65.655, -167.157
414.989, 65.689, -166.831
421.025, 65.653, -166.795
427.149, 65.557, -166.343
433.362, 65.638, -166.509
439.665, 65.683, -166.596
446.060, 65.554, -166.754
452.548, 65.638, -166.625
459.131, 65.591, -166.172
465.809, 65.682, -166.597
472.584, 65.644, -166.690
479.458, 65.664, -166.366
486.432, 65.607, -166.427
493.507, 65.614, -165.957
500.686, 65.678, -166.100
507.968, 65.670, -165.997
515.357, 65.686, -165.892
522.853, 65.707, -166.047
530.458, 65.644, -166.066
538.174, 65.664, -165.280
546.002, 65.715, -166.096
553.943, 65.742, -165.608
562.001, 65.685, -165.231
570.175, 65.708, -165.351
578.469, 65.746, -165.464
586.883, 65.696, -166.446
595.419, 65.764, -165.962
604.080, 65.679, -164.927
612.866, 65.762, -165.621
621.780, 65.666, -163.726
630.824, 65.882, -165.468
640.000, 65.818, -165.035
649.309, 65.854, -164.837
658.753, 65.853, -165.122
668.335, 65.941, -164.834
678.056, 65.891, -165.412
687.919, 65.941, -164.986
697.925, 65.923, -165.014
708.076, 65.885, -165.372
718.376, 65.932, -164.939
728.825, 65.972, -165.250
739.426, 65.828, -164.894
750.181, 65.892, -165.607
761.093, 65.879, -165.083
772.163, 65.883, -164.890
783.394, 65.835, -164.407
794.789, 65.922, -164.434
806.349, 65.838, -164.747
818.078, 65.949, -164.377
829.977, 65.819, -164.775
842.050, 65.894, -164.133
854.297, 65.901, -163.939
866.724, 65.882, -164.075
879.330, 65.902, -163.586
892.120, 65.835, -163.838
905.097, 65.859, -163.159
918.262, 65.951, -163.434
931.618, 65.874, -163.270
945.169, 65.888, -163.387
958.917, 65.827, -163.051
972.864, 65.863, -162.626
987.015, 65.786, -162.187
1001.371, 65.851, -162.267
1015.937, 65.841, -161.768
1030.714, 65.944, -161.742
1045.706, 65.894, -161.657
1060.916, 65.854, -162.342
1076.347, 65.860, -161.069
1092.003, 65.881, -160.887
1107.887, 65.850, -161.295
1124.001, 65.793, -160.020
1140.350, 65.843, -159.868
1156.937, 65.899, -159.459
1173.765, 65.929, -158.484
1190.838, 65.938, -159.043
1208.159, 65.817, -158.042
1225.732, 65.993, -158.137
1243.561, 66.003, -157.923
1261.649, 66.010, -157.206
1280.000, 65.941, -157.889
1298.618, 66.063, -156.113
1317.507, 66.034, -157.444
1336.670, 66.081, -155.839
1356.113, 66.126, -156.376
1375.838, 66.028, -155.911
1395.850, 66.191, -155.386
1416.153, 66.089, -154.139
1436.751, 66.148, -154.514
1457.649, 66.206, -153.780
1478.851, 66.157, -154.187
1500.362, 66.269, -153.980
1522.185, 66.207, -153.019
1544.326, 66.224, -152.854
1566.789, 66.105, -150.706
1589.578, 66.282, -151.470
1612.699, 66.357, -149.379
1636.156, 66.326, -150.357
1659.955, 66.520, -150.318
1684.099, 66.372, -148.307
1708.595, 66.490, -149.182
1733.447, 66.496, -148.190
1758.661, 66.495, -146.975
1784.241, 66.443, -146.510
1810.193, 66.597, -145.332
1836.523, 66.582, -143.906
1863.236, 66.544, -144.008
1890.338, 66.847, -141.945
1917.833, 66.943, -140.212
1945.729, 67.141, -140.233
1974.030, 67.267, -139.830
2002.743, 67.431, -138.490
2031.873, 67.669, -138.515
2061.428, 67.839, -138.779
2091.412, 67.757, -137.879
2121.832, 68.106, -138.303
2152.695, 68.204, -135.934
2184.007, 68.169, -134.927
2215.774, 68.217, -134.310
2248.003, 68.541, -133.557
2280.701, 68.996, -133.134
2313.874, 69.227, -131.163
2347.530, 69.612, -131.929
2381.676, 70.089, -131.222
2416.318, 70.209, -131.755
2451.464, 70.564, -132.320
2487.122, 70.713, -132.986
2523.298, 71.053, -134.115
2560.000, 71.125, -134.504
2597.236, 71.221, -135.408
2635.014, 71.492, -136.191
2673.341, 71.642, -137.258
2712.226, 71.985, -136.301
2751.676, 72.309, -137.499
2791.700, 72.764, -138.551
2832.306, 72.957, -140.322
2873.503, 72.951, -143.041
2915.299, 72.850, -145.463
2957.703, 72.720, -146.339
3000.724, 72.797, -146.672
3044.370, 72.840, -146.490
3088.652, 72.858, -146.115
3133.577, 73.007, -146.720
3179.156, 73.362, -147.072
3225.398, 73.760, -148.115
3272.312, 74.002, -151.083
3319.909, 74.026, -153.728
3368.198, 73.915, -154.806
3417.190, 73.879, -155.592
3466.894, 74.261, -156.754
3517.321, 74.246, -159.201
3568.482, 74.179, -161.378
3620.387, 74.084, -161.775
3673.046, 74.266, -164.101
3726.472, 74.165, -167.063
3780.675, 73.942, -169.291
3835.666, 73.546, -170.443
3891.457, 73.251, -169.849
3948.060, 73.117, -169.944
4005.486, 73.119, -169.779
4063.747, 72.941, -170.401
4122.855, 72.832, -170.506
4182.824, 72.691, -171.076
4243.664, 72.476, -170.909
4305.390, 72.245, -169.338
4368.013, 72.189, -167.825
4431.547, 72.295, -166.010
4496.005, 72.598, -164.930
4561.401, 72.731, -165.760
4627.749, 72.801, -166.104
4695.061, 72.834, -165.996
4763.352, 72.906, -165.494
4832.637, 73.129, -165.231
4902.929, 73.326, -165.285
4974.244, 73.440, -165.562
5046.596, 73.593, -165.364
5120.000, 73.758, -165.661
5194.472, 73.963, -165.550
5270.027, 74.322, -165.685
5346.682, 74.652, -166.183
5424.451, 75.035, -167.589
5503.352, 75.480, -169.550
5583.399, 75.876, -171.512
5664.612, 76.303, -174.161
5747.006, 76.710, -178.370
5830.598, 77.030, 176.338
5915.406, 77.171, 169.832
6001.447, 77.035, 163.083
6088.740, 76.543, 156.734
6177.303, 75.890, 151.595
6267.154, 75.096, 148.295
6358.312, 74.286, 145.977
6450.796, 73.456, 145.329
6544.625, 72.708, 145.965
6639.818, 72.154, 147.694
6736.397, 71.735, 149.757
6834.380, 71.459, 152.247
6933.789, 71.397, 154.349
7034.643, 71.551, 156.680
7136.964, 71.920, 157.903
7240.773, 72.479, 157.659
7346.093, 73.152, 155.300
7452.944, 73.817, 150.207
7561.350, 74.298, 141.751
7671.332, 74.338, 129.889
7782.915, 73.578, 116.602
7896.120, 71.988, 104.403
8010.971, 69.612, 95.699
8127.493, 66.726, 92.995
8245.711, 63.855, 97.087
8365.647, 61.298, 107.063
8487.328, 59.926, 123.132
8610.779, 59.279, 136.819
8736.026, 59.478, 147.133
8863.095, 59.235, 155.826
8992.011, 59.222, 165.241
9122.803, 59.655, 174.405
9255.497, 60.417, -178.456
9390.121, 61.126, -174.975
9526.704, 61.672, -172.275
9665.273, 62.076, -169.934
9805.857, 62.256, -167.739
9948.487, 62.397, -163.675
10093.191, 62.761, -157.905
10240.000, 63.611, -150.753
10388.944, 65.450, -145.039
10540.055, 67.803, -148.916
10693.363, 69.269, -160.198
10848.902, 69.773, -173.273
11006.703, 69.380, 173.793
11166.799, 68.294, 163.971
11329.224, 66.861, 157.920
11494.012, 65.229, 154.268
11661.195, 63.125, 153.399
11830.812, 60.419, 161.987
12002.895, 58.918, -174.062
12177.480, 60.994, -150.709
12354.606, 64.131, -144.984
12534.309, 66.741, -151.445
12716.624, 68.137, -163.026
12901.592, 68.632, -176.304
13089.250, 68.207, 170.742
13279.637, 67.003, 160.964
13472.794, 65.470, 156.280
13668.760, 64.137, 155.499
13867.577, 63.043, 156.034
14069.285, 62.069, 157.060
14273.928, 60.900, 158.921
14481.547, 59.918, 166.322
14692.186, 60.188, 173.319
14905.889, 60.759, 172.429
15122.700, 60.458, 166.776
15342.664, 59.286, 162.268
15565.829, 57.227, 160.004
15792.239, 53.578, 168.419
16021.942, 52.001, -149.962
16254.986, 56.842, -128.335
16491.422, 60.438, -132.444
16731.295, 62.447, -143.237
16974.656, 63.407, -155.415
17221.559, 63.709, -168.364
17472.053, 63.069, 178.981
17726.189, 61.681, 169.743
17984.021, 60.021, 166.513
18245.605, 58.796, 167.767
18510.994, 58.247, 169.321
18780.242, 58.066, 167.242
19053.408, 57.604, 160.206
19330.547, 56.094, 150.790
19611.715, 53.429, 145.811
19896.975, 50.518, 147.760
