* Measurement data measured by REW V5.19
* Source: ASIO MOTU M Series, In 1
* Format: 1M Log Swept Sine, 4 sweeps at -10.0 dBFS  With no timing reference
* Dated: 2 Sep, 2020 8:00:21 PM
* REW Settings:
*  C-weighting compensation: Off
*  Target level: 75.0 dB
* Note: ; 
* Measurement: Sep 2 20:00:21
* Smoothing: None
* Frequency Step: 1/48 octave
* Start Frequency: 10.0 Hz
*
* Freq(Hz), SPL(dB), Phase(degrees)
10.145, 55.620, -53.221
10.293, 55.740, -54.454
10.443, 55.854, -55.542
10.595, 55.970, -56.595
10.749, 56.089, -57.614
10.905, 56.210, -58.601
11.064, 56.336, -59.582
11.225, 56.468, -60.551
11.388, 56.603, -61.536
11.554, 56.742, -62.542
11.722, 56.883, -63.576
11.892, 57.024, -64.652
12.065, 57.164, -65.761
12.241, 57.298, -66.904
12.419, 57.427, -68.070
12.599, 57.548, -69.241
12.782, 57.663, -70.412
12.968, 57.770, -71.558
13.157, 57.872, -72.676
13.348, 57.970, -73.747
13.543, 58.066, -74.777
13.740, 58.163, -75.760
13.939, 58.263, -76.711
14.142, 58.368, -77.637
14.348, 58.477, -78.560
14.557, 58.590, -79.488
14.768, 58.706, -80.443
14.983, 58.822, -81.426
15.201, 58.935, -82.443
15.422, 59.043, -83.481
15.646, 59.144, -84.533
15.874, 59.235, -85.565
16.105, 59.319, -86.567
16.339, 59.398, -87.507
16.577, 59.475, -88.381
16.818, 59.554, -89.186
17.063, 59.641, -89.943
17.311, 59.737, -90.684
17.563, 59.842, -91.438
17.818, 59.953, -92.247
18.077, 60.063, -93.117
18.340, 60.168, -94.046
18.607, 60.263, -95.009
18.877, 60.346, -95.960
19.152, 60.422, -96.875
19.431, 60.492, -97.735
19.713, 60.564, -98.544
20.000, 60.640, -99.336
20.291, 60.718, -100.134
20.586, 60.795, -100.950
20.885, 60.867, -101.776
21.189, 60.933, -102.580
21.497, 60.997, -103.330
21.810, 61.065, -104.030
22.127, 61.143, -104.713
22.449, 61.230, -105.431
22.776, 61.320, -106.224
23.107, 61.404, -107.093
23.443, 61.475, -107.991
23.784, 61.534, -108.846
24.130, 61.589, -109.618
24.481, 61.651, -110.327
24.837, 61.724, -111.040
25.198, 61.801, -111.816
25.565, 61.872, -112.658
25.937, 61.928, -113.507
26.314, 61.973, -114.283
26.697, 62.019, -114.951
27.085, 62.076, -115.553
27.479, 62.147, -116.180
27.879, 62.223, -116.895
28.284, 62.291, -117.689
28.696, 62.344, -118.495
29.113, 62.387, -119.247
29.537, 62.428, -119.930
29.966, 62.475, -120.583
30.402, 62.526, -121.257
30.844, 62.574, -121.967
31.293, 62.614, -122.687
31.748, 62.648, -123.381
32.210, 62.679, -124.029
32.678, 62.711, -124.639
33.154, 62.745, -125.223
33.636, 62.781, -125.780
34.125, 62.821, -126.300
34.621, 62.869, -126.800
35.125, 62.924, -127.314
35.636, 62.983, -127.859
36.154, 63.043, -128.425
36.680, 63.106, -129.025
37.214, 63.167, -129.700
37.755, 63.213, -130.437
38.304, 63.239, -131.129
38.861, 63.265, -131.701
39.427, 63.307, -132.266
40.000, 63.354, -133.004
40.582, 63.371, -133.876
41.172, 63.354, -134.626
41.771, 63.341, -135.157
42.379, 63.358, -135.683
42.995, 63.370, -136.430
43.620, 63.330, -137.192
44.255, 63.254, -137.475
44.898, 63.238, -137.242
45.552, 63.312, -137.156
46.214, 63.383, -137.550
46.886, 63.392, -137.898
47.568, 63.414, -137.828
48.260, 63.503, -137.798
48.962, 63.616, -138.146
49.674, 63.721, -138.865
50.397, 63.778, -139.954
51.130, 63.748, -140.913
51.874, 63.731, -141.270
52.628, 63.802, -141.777
53.394, 63.822, -142.755
54.170, 63.772, -143.153
54.958, 63.812, -143.134
55.758, 63.862, -143.679
56.569, 63.802, -144.021
57.391, 63.777, -143.766
58.226, 63.796, -143.834
59.073, 63.781, -144.109
59.932, 63.753, -144.447
60.804, 63.723, -144.495
61.688, 63.828, -144.571
62.586, 63.899, -145.321
63.496, 63.994, -145.055
64.420, 64.213, -145.653
65.357, 64.184, -145.433
66.307, 64.468, -144.593
67.272, 64.257, -145.736
68.250, 64.262, -139.699
69.243, 65.434, -141.653
70.250, 64.941, -148.805
71.272, 64.323, -146.466
72.309, 64.511, -147.290
73.360, 64.343, -148.255
74.427, 64.460, -149.173
75.510, 64.414, -150.149
76.608, 64.502, -150.346
77.723, 64.528, -150.722
78.853, 64.537, -150.814
80.000, 64.510, -150.661
81.164, 64.546, -150.786
82.344, 64.526, -151.192
83.542, 64.562, -151.403
84.757, 64.611, -151.881
85.990, 64.670, -152.202
87.241, 64.706, -152.522
88.510, 64.765, -152.683
89.797, 64.786, -153.142
91.103, 64.822, -153.361
92.428, 64.871, -154.020
93.773, 64.881, -154.592
95.137, 64.872, -155.184
96.520, 64.842, -155.277
97.924, 64.873, -155.681
99.349, 64.813, -156.076
100.794, 64.819, -155.990
102.260, 64.891, -156.377
103.747, 64.918, -156.951
105.256, 64.891, -157.793
106.787, 64.811, -158.078
108.340, 64.724, -158.281
109.916, 64.687, -158.464
111.515, 64.600, -158.251
113.137, 64.585, -158.069
114.783, 64.601, -157.447
116.452, 64.629, -157.268
118.146, 64.705, -156.974
119.865, 64.776, -156.969
121.608, 64.856, -157.128
123.377, 64.926, -157.288
125.171, 64.964, -157.665
126.992, 64.990, -157.990
128.839, 65.018, -158.233
130.713, 65.045, -158.529
132.615, 65.083, -158.823
134.543, 65.113, -158.918
136.500, 65.162, -159.352
138.486, 65.174, -158.790
140.500, 65.165, -159.684
142.544, 65.195, -160.011
144.617, 65.214, -160.418
146.721, 65.234, -160.583
148.855, 65.235, -160.639
151.020, 65.260, -160.895
153.217, 65.260, -161.032
155.445, 65.321, -161.122
157.706, 65.311, -161.535
160.000, 65.316, -161.909
162.327, 65.414, -162.619
164.688, 65.365, -162.074
167.084, 65.379, -162.470
169.514, 65.399, -162.669
171.980, 65.413, -162.926
174.481, 65.414, -163.105
177.019, 65.420, -163.348
179.594, 65.419, -163.586
182.206, 65.437, -163.761
184.856, 65.433, -163.844
187.545, 65.431, -164.177
190.273, 65.496, -164.523
193.041, 65.471, -164.575
195.849, 65.430, -164.935
198.697, 65.433, -164.995
201.587, 65.401, -165.332
204.520, 65.418, -165.378
207.494, 65.429, -165.612
210.512, 65.431, -165.660
213.574, 65.434, -165.852
216.681, 65.432, -165.907
219.833, 65.407, -166.103
223.030, 65.395, -166.170
226.274, 65.423, -166.219
229.565, 65.424, -166.348
232.905, 65.404, -166.329
236.292, 65.413, -166.443
239.729, 65.422, -166.887
243.216, 65.399, -166.956
246.754, 65.411, -167.002
250.343, 65.437, -166.985
253.984, 65.441, -166.956
257.678, 65.437, -166.805
261.426, 65.390, -167.484
265.229, 65.494, -167.054
269.087, 65.402, -167.272
273.001, 65.374, -167.120
276.972, 65.423, -166.144
281.000, 65.434, -167.404
285.088, 65.452, -167.499
289.234, 65.410, -167.367
293.441, 65.441, -167.558
297.710, 65.427, -167.477
302.040, 65.417, -167.531
306.433, 65.425, -167.629
310.890, 65.457, -167.679
315.412, 65.446, -167.669
320.000, 65.397, -167.800
324.655, 65.426, -167.795
329.377, 65.430, -167.848
334.168, 65.444, -167.903
339.028, 65.394, -168.031
343.959, 65.376, -168.002
348.962, 65.389, -167.852
354.038, 65.403, -167.730
359.188, 65.430, -167.798
364.412, 65.440, -167.846
369.713, 65.437, -167.867
375.090, 65.420, -167.809
380.546, 65.419, -167.865
386.081, 65.417, -167.989
391.697, 65.440, -167.941
397.395, 65.455, -167.871
403.175, 65.435, -167.886
409.039, 65.419, -167.822
414.989, 65.404, -167.370
421.025, 65.428, -167.454
427.149, 65.463, -167.418
433.362, 65.453, -167.532
439.665, 65.456, -167.454
446.060, 65.465, -167.237
452.548, 65.490, -167.317
459.131, 65.465, -167.513
465.809, 65.459, -167.110
472.584, 65.483, -166.910
479.458, 65.505, -167.056
486.432, 65.463, -166.966
493.507, 65.463, -166.923
500.686, 65.517, -166.903
507.968, 65.512, -167.060
515.357, 65.492, -166.814
522.853, 65.514, -166.978
530.458, 65.494, -166.313
538.174, 65.478, -166.155
546.002, 65.547, -166.034
553.943, 65.568, -165.919
562.001, 65.589, -165.826
570.175, 65.635, -165.740
578.469, 65.595, -166.148
586.883, 65.614, -165.824
595.419, 65.626, -165.641
604.080, 65.646, -165.535
612.866, 65.699, -165.439
621.780, 65.719, -165.439
630.824, 65.750, -165.584
640.000, 65.762, -165.636
649.309, 65.760, -165.605
658.753, 65.753, -165.480
668.335, 65.835, -165.314
678.056, 65.819, -165.632
687.919, 65.819, -165.572
697.925, 65.819, -165.834
708.076, 65.748, -165.848
718.376, 65.779, -165.799
728.825, 65.770, -165.241
739.426, 65.801, -165.308
750.181, 65.789, -164.909
761.093, 65.774, -165.128
772.163, 65.770, -165.028
783.394, 65.747, -164.444
794.789, 65.834, -163.836
806.349, 65.902, -164.433
818.078, 65.903, -164.137
829.977, 65.908, -164.605
842.050, 65.933, -164.156
854.297, 65.930, -164.341
866.724, 65.995, -164.234
879.330, 65.952, -164.606
892.120, 65.946, -164.765
905.097, 65.942, -164.645
918.262, 65.879, -165.057
931.618, 65.853, -164.600
945.169, 65.812, -163.862
958.917, 65.734, -164.048
972.864, 65.792, -163.201
987.015, 65.873, -162.927
1001.371, 65.848, -163.686
1015.937, 65.740, -163.449
1030.714, 65.806, -162.816
1045.706, 65.792, -162.888
1060.916, 65.696, -162.409
1076.347, 65.777, -161.659
1092.003, 65.806, -162.370
1107.887, 65.600, -162.167
1124.001, 65.553, -161.210
1140.350, 65.529, -159.843
1156.937, 65.658, -159.489
1173.765, 65.738, -158.685
1190.838, 65.798, -158.050
1208.159, 65.913, -158.370
1225.732, 65.866, -157.952
1243.561, 65.795, -158.271
1261.649, 65.759, -157.511
1280.000, 65.903, -157.296
1298.618, 65.900, -157.324
1317.507, 65.823, -157.285
1336.670, 65.730, -155.799
1356.113, 65.846, -154.941
1375.838, 65.842, -154.577
1395.850, 65.922, -153.151
1416.153, 66.023, -152.944
1436.751, 66.148, -152.774
1457.649, 66.172, -153.135
1478.851, 66.203, -152.412
1500.362, 66.245, -150.962
1522.185, 66.429, -151.143
1544.326, 66.285, -150.684
1566.789, 66.473, -149.446
1589.578, 66.458, -149.846
1612.699, 66.546, -149.561
1636.156, 66.547, -150.013
1659.955, 66.508, -148.927
1684.099, 66.496, -148.461
1708.595, 66.510, -147.076
1733.447, 66.637, -146.097
1758.661, 66.732, -145.059
1784.241, 66.957, -143.348
1810.193, 67.199, -144.688
1836.523, 67.277, -144.177
1863.236, 67.257, -144.078
1890.338, 67.300, -143.448
1917.833, 67.384, -143.065
1945.729, 67.550, -140.857
1974.030, 67.585, -141.062
2002.743, 67.843, -140.853
2031.873, 68.066, -139.615
2061.428, 68.111, -139.370
2091.412, 68.048, -138.614
2121.832, 68.316, -139.118
2152.695, 68.561, -137.000
2184.007, 68.880, -135.388
2215.774, 69.183, -135.819
2248.003, 69.806, -136.146
2280.701, 69.858, -138.007
2313.874, 69.822, -138.973
2347.530, 69.741, -138.400
2381.676, 70.207, -136.938
2416.318, 70.662, -137.877
2451.464, 70.857, -140.528
2487.122, 70.670, -140.957
2523.298, 70.862, -139.920
2560.000, 71.150, -139.564
2597.236, 71.610, -140.810
2635.014, 71.887, -142.964
2673.341, 72.058, -145.677
2712.226, 71.966, -146.010
2751.676, 72.152, -146.446
2791.700, 72.473, -147.727
2832.306, 72.445, -150.549
2873.503, 72.402, -152.728
2915.299, 72.080, -152.403
2957.703, 72.285, -150.459
3000.724, 72.497, -153.623
3044.370, 72.390, -155.494
3088.652, 72.235, -157.252
3133.577, 71.990, -157.137
3179.156, 71.981, -155.756
3225.398, 72.154, -156.276
3272.312, 71.849, -157.300
3319.909, 71.894, -154.473
3368.198, 72.177, -156.930
3417.190, 72.051, -158.995
3466.894, 71.647, -156.604
3517.321, 71.670, -155.516
3568.482, 72.258, -153.596
3620.387, 72.252, -155.279
3673.046, 72.494, -154.030
3726.472, 72.522, -155.747
3780.675, 72.838, -157.598
3835.666, 72.637, -156.600
3891.457, 72.964, -156.064
3948.060, 73.357, -158.020
4005.486, 73.553, -158.778
4063.747, 73.523, -160.915
4122.855, 73.521, -162.021
4182.824, 73.523, -163.253
4243.664, 73.426, -163.237
4305.390, 73.569, -164.253
4368.013, 73.702, -164.642
4431.547, 73.747, -165.669
4496.005, 73.925, -167.817
4561.401, 73.707, -169.319
4627.749, 73.635, -169.453
4695.061, 73.530, -170.015
4763.352, 73.518, -169.895
4832.637, 73.565, -169.934
4902.929, 73.605, -170.104
4974.244, 73.539, -169.214
5046.596, 73.783, -168.494
5120.000, 73.964, -168.637
5194.472, 74.337, -168.188
5270.027, 74.721, -169.046
5346.682, 75.161, -170.531
5424.451, 75.551, -173.195
5503.352, 75.862, -175.810
5583.399, 76.248, -179.869
5664.612, 76.211, 175.294
5747.006, 76.196, 172.655
5830.598, 76.038, 168.574
5915.406, 76.178, 165.825
6001.447, 76.209, 160.698
6088.740, 75.952, 156.494
6177.303, 75.622, 151.116
6267.154, 75.039, 146.863
6358.312, 74.348, 143.035
6450.796, 73.628, 141.311
6544.625, 72.825, 139.698
6639.818, 72.161, 139.913
6736.397, 71.459, 140.015
6834.380, 70.820, 141.532
6933.789, 70.352, 143.837
7034.643, 70.022, 146.625
7136.964, 69.869, 149.325
7240.773, 69.919, 152.283
7346.093, 70.193, 154.449
7452.944, 70.749, 155.479
7561.350, 71.481, 154.271
7671.332, 72.254, 149.660
7782.915, 72.865, 141.413
7896.120, 72.944, 129.990
8010.971, 72.226, 116.304
8127.493, 70.649, 104.027
8245.711, 68.090, 95.716
8365.647, 65.094, 94.212
8487.328, 62.454, 102.286
8610.779, 60.810, 114.547
8736.026, 60.363, 125.148
8863.095, 60.724, 127.460
8992.011, 59.548, 122.602
9122.803, 55.717, 118.074
9255.497, 49.213, 163.121
9390.121, 54.425, -152.768
9526.704, 57.726, -150.141
9665.273, 59.662, -149.275
9805.857, 61.009, -147.292
9948.487, 62.320, -146.145
10093.191, 63.524, -148.335
10240.000, 64.253, -150.956
10388.944, 64.799, -151.624
10540.055, 65.427, -151.111
10693.363, 66.467, -150.783
10848.902, 67.668, -154.723
11006.703, 68.594, -161.668
11166.799, 69.183, -170.303
11329.224, 69.461, 178.653
11494.012, 68.950, 166.069
11661.195, 67.598, 154.777
11830.812, 65.430, 146.945
12002.895, 62.114, 145.107
12177.480, 58.095, 163.181
12354.606, 58.793, -158.693
12534.309, 62.503, -147.843
12716.624, 65.009, -150.119
12901.592, 66.888, -156.417
13089.250, 68.353, -166.337
13279.637, 69.229, -179.994
13472.794, 69.287, 163.801
13668.760, 68.441, 147.307
13867.577, 66.674, 131.673
14069.285, 63.878, 118.886
14273.928, 59.935, 112.265
14481.547, 54.992, 118.198
14692.186, 50.130, 147.376
14905.889, 51.505, -163.557
15122.700, 55.620, -155.727
15342.664, 57.278, -160.835
15565.829, 57.230, -165.451
15792.239, 56.509, -164.760
16021.942, 55.656, -155.547
16254.986, 56.502, -140.147
16491.422, 59.077, -136.008
16731.295, 60.721, -143.029
16974.656, 61.318, -151.241
17221.559, 61.327, -158.019
17472.053, 61.031, -163.332
17726.189, 60.712, -167.413
17984.021, 60.288, -170.749
18245.605, 59.838, -172.763
18510.994, 59.646, -175.402
18780.242, 59.146, 179.222
19053.408, 58.242, 175.481
19330.547, 57.338, 173.004
19611.715, 56.292, 169.241
19896.975, 54.498, 166.548
